[DEFAULT]

version = diffpy.pdfgetx-2.1.1

# input and output specifications
dataformat = QA
inputfile = LaB6_0p4mm_011_av10_monitor.xye
backgroundfile = 0p4mm_capillary_018_av17_monitor.xye
outputtype = sq

# PDF calculation setup
mode = xray
composition = LaB6
bgscale = 1
rpoly = 0.9
qmaxinst = 23
qmin = 1
qmax = 23
rmin = 0
rmax = 30
rstep = 0.01

# End of config --------------------------------------------------------------

#### start data
#S 1
#L Q(Ã…$^{-1}$)  S(a.u.)
1.00677 1.25234
1.01377 1.25163
1.02076 1.25091
1.02775 1.25016
1.03474 1.2494
1.04173 1.24863
1.04872 1.24783
1.05571 1.24702
1.06271 1.24619
1.0697 1.24535
1.07669 1.24448
1.08368 1.24361
1.09067 1.24271
1.09766 1.2418
1.10465 1.24087
1.11165 1.23992
1.11864 1.23896
1.12563 1.23799
1.13262 1.23699
1.13961 1.23598
1.1466 1.23495
1.15359 1.23391
1.16059 1.23285
1.16758 1.23178
1.17457 1.23069
1.18156 1.22958
1.18855 1.22846
1.19554 1.22733
1.20254 1.22617
1.20953 1.22501
1.21652 1.22382
1.22351 1.22262
1.2305 1.22141
1.23749 1.22018
1.24448 1.21894
1.25148 1.21768
1.25847 1.21641
1.26546 1.21512
1.27245 1.21382
1.27944 1.21251
1.28643 1.21118
1.29342 1.20983
1.30042 1.20847
1.30741 1.2071
1.3144 1.20572
1.32139 1.20432
1.32838 1.2029
1.33537 1.20148
1.34236 1.20004
1.34936 1.19858
1.35635 1.19712
1.36334 1.19564
1.37033 1.19414
1.37732 1.19264
1.38431 1.19112
1.39131 1.18959
1.3983 1.18805
1.40529 1.18649
1.41228 1.18493
1.41927 1.18335
1.42626 1.18176
1.43325 1.18016
1.44025 1.17854
1.44724 1.17692
1.45423 1.17528
1.46122 1.17363
1.46821 1.17197
1.4752 1.1703
1.48219 1.16862
1.48919 1.16693
1.49618 1.16523
1.50317 1.16352
1.51016 1.16179
1.51715 1.16006
1.52414 1.15832
1.53113 1.15657
1.53813 1.15481
1.54512 1.15303
1.55211 1.15125
1.5591 1.14946
1.56609 1.14767
1.57308 1.14586
1.58008 1.14404
1.58707 1.14221
1.59406 1.14038
1.60105 1.1386
1.60804 1.13736
1.61503 1.13689
1.62202 1.13575
1.62902 1.13396
1.63601 1.1325
1.643 1.1317
1.64999 1.13049
1.65698 1.12883
1.66397 1.12616
1.67096 1.12369
1.67796 1.12121
1.68495 1.11878
1.69194 1.11683
1.69893 1.11518
1.70592 1.11324
1.71291 1.11157
1.7199 1.11003
1.7269 1.10855
1.73389 1.10699
1.74088 1.10542
1.74787 1.10321
1.75486 1.10112
1.76185 1.09918
1.76885 1.09717
1.77584 1.09506
1.78283 1.09287
1.78982 1.09072
1.79681 1.08843
1.8038 1.08625
1.81079 1.08386
1.81779 1.08172
1.82478 1.07965
1.83177 1.07748
1.83876 1.07517
1.84575 1.07273
1.85274 1.07039
1.85973 1.06807
1.86673 1.06571
1.87372 1.06326
1.88071 1.06117
1.8877 1.05899
1.89469 1.05686
1.90168 1.05479
1.90868 1.05251
1.91567 1.05046
1.92266 1.04819
1.92965 1.04618
1.93664 1.04396
1.94363 1.04177
1.95062 1.03956
1.95762 1.03753
1.96461 1.03542
1.9716 1.03314
1.97859 1.0312
1.98558 1.02912
1.99257 1.02713
1.99956 1.02518
2.00656 1.02313
2.01355 1.02133
2.02054 1.01939
2.02753 1.01739
2.03452 1.01561
2.04151 1.01374
2.0485 1.01166
2.0555 1.00994
2.06249 1.00805
2.06948 1.00611
2.07647 1.0044
2.08346 1.00254
2.09045 1.00051
2.09745 0.998576
2.10444 0.996555
2.11143 0.994578
2.11842 0.992714
2.12541 0.990795
2.1324 0.98889
2.13939 0.987093
2.14639 0.985167
2.15338 0.983169
2.16037 0.981131
2.16736 0.97909
2.17435 0.977021
2.18134 0.975061
2.18833 0.972882
2.19533 0.970691
2.20232 0.96855
2.20931 0.96635
2.2163 0.964072
2.22329 0.961827
2.23028 0.959755
2.23727 0.957691
2.24427 0.955653
2.25126 0.953536
2.25825 0.951413
2.26524 0.94947
2.27223 0.947528
2.27922 0.945493
2.28622 0.943545
2.29321 0.941663
2.3002 0.939841
2.30719 0.937774
2.31418 0.935682
2.32117 0.933688
2.32816 0.931598
2.33516 0.929549
2.34215 0.927543
2.34914 0.925555
2.35613 0.923664
2.36312 0.921793
2.37011 0.919988
2.3771 0.918038
2.3841 0.916106
2.39109 0.914253
2.39808 0.912488
2.40507 0.910617
2.41206 0.908649
2.41905 0.906795
2.42604 0.905004
2.43304 0.90308
2.44003 0.90117
2.44702 0.899321
2.45401 0.897474
2.461 0.895568
2.46799 0.89363
2.47499 0.891666
2.48198 0.889804
2.48897 0.887964
2.49596 0.886117
2.50295 0.884243
2.50994 0.882378
2.51693 0.88059
2.52393 0.878715
2.53092 0.876741
2.53791 0.874731
2.5449 0.872826
2.55189 0.870894
2.55888 0.868972
2.56587 0.867008
2.57287 0.86499
2.57986 0.862991
2.58685 0.861035
2.59384 0.859112
2.60083 0.857139
2.60782 0.855298
2.61481 0.853559
2.62181 0.851875
2.6288 0.850087
2.63579 0.848416
2.64278 0.846817
2.64977 0.845146
2.65676 0.84348
2.66376 0.841824
2.67075 0.840227
2.67774 0.838547
2.68473 0.836837
2.69172 0.835087
2.69871 0.833395
2.7057 0.831782
2.7127 0.83013
2.71969 0.828601
2.72668 0.827091
2.73367 0.825648
2.74066 0.824186
2.74765 0.82283
2.75464 0.821351
2.76164 0.81986
2.76863 0.818324
2.77562 0.816661
2.78261 0.815075
2.7896 0.813319
2.79659 0.811502
2.80358 0.809696
2.81058 0.807909
2.81757 0.805988
2.82456 0.804005
2.83155 0.802099
2.83854 0.800218
2.84553 0.798436
2.85253 0.796579
2.85952 0.794852
2.86651 0.793176
2.8735 0.791613
2.88049 0.789955
2.88748 0.788235
2.89447 0.786651
2.90147 0.785159
2.90846 0.783594
2.91545 0.781968
2.92244 0.780446
2.92943 0.778958
2.93642 0.777429
2.94341 0.775827
2.95041 0.7743
2.9574 0.772746
2.96439 0.771208
2.97138 0.769746
2.97837 0.768295
2.98536 0.766922
2.99236 0.765581
2.99935 0.76425
3.00634 0.762841
3.01333 0.761389
3.02032 0.760031
3.02731 0.758665
3.0343 0.757337
3.0413 0.755794
3.04829 0.754362
3.05528 0.753002
3.06227 0.75158
3.06926 0.750134
3.07625 0.748686
3.08324 0.747239
3.09024 0.74567
3.09723 0.744097
3.10422 0.742518
3.11121 0.741045
3.1182 0.739545
3.12519 0.738104
3.13218 0.736678
3.13918 0.735271
3.14617 0.733931
3.15316 0.732579
3.16015 0.731255
3.16714 0.729866
3.17413 0.72856
3.18113 0.727297
3.18812 0.72592
3.19511 0.724611
3.2021 0.723319
3.20909 0.72206
3.21608 0.720804
3.22307 0.719642
3.23007 0.718358
3.23706 0.717114
3.24405 0.715796
3.25104 0.714663
3.25803 0.713432
3.26502 0.712182
3.27201 0.710973
3.27901 0.709823
3.286 0.708687
3.29299 0.707519
3.29998 0.706357
3.30697 0.705056
3.31396 0.703916
3.32095 0.702749
3.32795 0.701539
3.33494 0.700511
3.34193 0.699659
3.34892 0.698755
3.35591 0.697743
3.3629 0.696755
3.3699 0.695959
3.37689 0.695128
3.38388 0.694264
3.39087 0.693459
3.39786 0.692842
3.40485 0.692149
3.41184 0.691563
3.41884 0.690996
3.42583 0.69055
3.43282 0.690303
3.43981 0.690161
3.4468 0.690008
3.45379 0.690056
3.46078 0.690317
3.46778 0.690845
3.47477 0.691527
3.48176 0.692483
3.48875 0.693702
3.49574 0.695538
3.50273 0.697646
3.50972 0.699889
3.51672 0.702563
3.52371 0.706574
3.5307 0.711397
3.53769 0.716524
3.54468 0.723021
3.55167 0.731594
3.55867 0.741871
3.56566 0.754738
3.57265 0.769312
3.57964 0.787009
3.58663 0.809775
3.59362 0.840769
3.60061 0.872202
3.60761 0.91167
3.6146 0.962296
3.62159 1.02594
3.62858 1.0958
3.63557 1.18177
3.64256 1.28356
3.64955 1.40058
3.65655 1.54632
3.66354 1.70169
3.67053 1.86794
3.67752 2.07013
3.68451 2.28206
3.6915 2.4788
3.69849 2.67034
3.70549 2.88238
3.71248 3.03928
3.71947 3.15567
3.72646 3.22389
3.73345 3.23268
3.74044 3.18173
3.74744 3.07321
3.75443 2.92952
3.76142 2.75498
3.76841 2.53188
3.7754 2.30793
3.78239 2.0933
3.78938 1.89084
3.79638 1.69809
3.80337 1.52484
3.81036 1.36862
3.81735 1.23526
3.82434 1.13394
3.83133 1.04045
3.83832 0.960773
3.84532 0.897022
3.85231 0.849926
3.8593 0.809141
3.86629 0.774798
3.87328 0.748478
3.88027 0.726146
3.88726 0.709622
3.89426 0.695486
3.90125 0.683518
3.90824 0.673263
3.91523 0.665814
3.92222 0.659195
3.92921 0.65294
3.93621 0.648
3.9432 0.643848
3.95019 0.6402
3.95718 0.636875
3.96417 0.633906
3.97116 0.631122
3.97815 0.628696
3.98515 0.626588
3.99214 0.624421
3.99913 0.622551
4.00612 0.620967
4.01311 0.619563
4.0201 0.6181
4.02709 0.616836
4.03409 0.615711
4.04108 0.614726
4.04807 0.613847
4.05506 0.612981
4.06205 0.612205
4.06904 0.611456
4.07603 0.610844
4.08303 0.610143
4.09002 0.609475
4.09701 0.608952
4.104 0.608479
4.11099 0.607845
4.11798 0.607125
4.12498 0.606388
4.13197 0.605778
4.13896 0.605068
4.14595 0.604266
4.15294 0.603628
4.15993 0.603225
4.16692 0.602693
4.17392 0.60206
4.18091 0.601497
4.1879 0.600921
4.19489 0.600266
4.20188 0.599677
4.20887 0.599035
4.21586 0.598496
4.22286 0.598022
4.22985 0.59765
4.23684 0.597299
4.24383 0.596881
4.25082 0.596606
4.25781 0.596253
4.26481 0.595863
4.2718 0.595472
4.27879 0.595084
4.28578 0.594606
4.29277 0.59417
4.29976 0.593861
4.30675 0.593551
4.31375 0.593369
4.32074 0.593087
4.32773 0.592847
4.33472 0.592546
4.34171 0.592276
4.3487 0.591911
4.35569 0.591526
4.36269 0.5912
4.36968 0.590972
4.37667 0.590693
4.38366 0.590474
4.39065 0.590314
4.39764 0.590192
4.40463 0.589982
4.41163 0.589808
4.41862 0.589655
4.42561 0.589477
4.4326 0.589165
4.43959 0.588872
4.44658 0.588684
4.45358 0.588531
4.46057 0.588355
4.46756 0.588199
4.47455 0.587962
4.48154 0.587802
4.48853 0.587515
4.49552 0.587253
4.50252 0.587085
4.50951 0.586893
4.5165 0.586629
4.52349 0.586323
4.53048 0.586178
4.53747 0.586069
4.54446 0.585967
4.55146 0.585703
4.55845 0.585489
4.56544 0.585306
4.57243 0.585112
4.57942 0.584913
4.58641 0.584775
4.5934 0.584666
4.6004 0.584539
4.60739 0.584453
4.61438 0.584425
4.62137 0.584447
4.62836 0.584362
4.63535 0.584215
4.64235 0.584027
4.64934 0.583807
4.65633 0.583656
4.66332 0.583596
4.67031 0.583454
4.6773 0.583157
4.68429 0.582952
4.69129 0.582676
4.69828 0.582334
4.70527 0.582014
4.71226 0.58182
4.71925 0.581606
4.72624 0.581355
4.73323 0.58112
4.74023 0.580932
4.74722 0.580881
4.75421 0.580742
4.7612 0.580642
4.76819 0.580471
4.77518 0.580369
4.78217 0.580299
4.78917 0.58033
4.79616 0.580397
4.80315 0.580458
4.81014 0.580661
4.81713 0.580811
4.82412 0.580978
4.83112 0.581141
4.83811 0.581371
4.8451 0.581628
4.85209 0.581764
4.85908 0.581983
4.86607 0.582228
4.87306 0.582531
4.88006 0.582917
4.88705 0.583454
4.89404 0.58402
4.90103 0.58461
4.90802 0.585272
4.91501 0.586065
4.922 0.586962
4.929 0.587895
4.93599 0.588899
4.94298 0.590026
4.94997 0.591318
4.95696 0.592568
4.96395 0.59393
4.97094 0.595516
4.97794 0.59741
4.98493 0.599227
4.99192 0.601534
4.99891 0.604124
5.0059 0.607002
5.01289 0.610543
5.01989 0.614655
5.02688 0.619027
5.03387 0.624567
5.04086 0.631261
5.04785 0.638073
5.05484 0.646265
5.06183 0.65614
5.06883 0.667568
5.07582 0.680962
5.08281 0.696717
5.0898 0.715224
5.09679 0.737035
5.10378 0.765977
5.11077 0.797448
5.11777 0.834519
5.12476 0.881408
5.13175 0.9412
5.13874 1.00776
5.14573 1.0905
5.15272 1.19188
5.15971 1.31041
5.16671 1.46423
5.1737 1.6432
5.18069 1.84219
5.18768 2.09075
5.19467 2.39981
5.20166 2.73808
5.20866 3.10629
5.21565 3.56992
5.22264 4.05361
5.22963 4.56639
5.23662 5.07967
5.24361 5.62697
5.2506 6.13835
5.2576 6.57717
5.26459 6.89796
5.27158 7.1044
5.27857 7.17441
5.28556 7.08586
5.29255 6.85881
5.29954 6.51244
5.30654 6.03704
5.31353 5.48676
5.32052 4.92654
5.32751 4.36012
5.3345 3.84736
5.34149 3.33051
5.34849 2.87733
5.35548 2.46758
5.36247 2.15464
5.36946 1.86465
5.37645 1.62455
5.38344 1.42598
5.39043 1.26846
5.39743 1.13917
5.40442 1.03735
5.41141 0.951243
5.4184 0.881882
5.42539 0.830188
5.43238 0.788156
5.43937 0.750525
5.44637 0.721926
5.45336 0.698851
5.46035 0.680076
5.46734 0.663039
5.47433 0.649934
5.48132 0.638036
5.48831 0.628828
5.49531 0.62084
5.5023 0.613772
5.50929 0.607461
5.51628 0.602734
5.52327 0.598295
5.53026 0.594036
5.53726 0.590458
5.54425 0.58746
5.55124 0.584768
5.55823 0.582389
5.56522 0.580127
5.57221 0.578066
5.5792 0.576244
5.5862 0.574592
5.59319 0.57285
5.60018 0.571487
5.60717 0.570282
5.61416 0.569211
5.62115 0.568296
5.62814 0.56761
5.63514 0.567026
5.64213 0.566528
5.64912 0.565968
5.65611 0.56541
5.6631 0.564951
5.67009 0.564465
5.67708 0.563821
5.68408 0.563241
5.69107 0.56287
5.69806 0.562306
5.70505 0.561785
5.71204 0.561283
5.71903 0.56087
5.72603 0.560318
5.73302 0.559844
5.74001 0.559487
5.747 0.55915
5.75399 0.558814
5.76098 0.558483
5.76797 0.558195
5.77497 0.557844
5.78196 0.55752
5.78895 0.557316
5.79594 0.557097
5.80293 0.556806
5.80992 0.556516
5.81691 0.556303
5.82391 0.556043
5.8309 0.55566
5.83789 0.555242
5.84488 0.554913
5.85187 0.554585
5.85886 0.554352
5.86585 0.554055
5.87285 0.553957
5.87984 0.553898
5.88683 0.553719
5.89382 0.553372
5.90081 0.553132
5.9078 0.553032
5.9148 0.552937
5.92179 0.552687
5.92878 0.552436
5.93577 0.552263
5.94276 0.552144
5.94975 0.551994
5.95674 0.551937
5.96374 0.551749
5.97073 0.551697
5.97772 0.551552
5.98471 0.55144
5.9917 0.551377
5.99869 0.55129
6.00568 0.551318
6.01268 0.551241
6.01967 0.551149
6.02666 0.551073
6.03365 0.550997
6.04064 0.551125
6.04763 0.551089
6.05462 0.551111
6.06162 0.551001
6.06861 0.551
6.0756 0.550974
6.08259 0.551061
6.08958 0.551093
6.09657 0.551173
6.10357 0.551332
6.11056 0.551414
6.11755 0.551565
6.12454 0.55186
6.13153 0.552449
6.13852 0.553029
6.14551 0.553651
6.15251 0.554501
6.1595 0.555407
6.16649 0.556599
6.17348 0.557842
6.18047 0.559341
6.18746 0.560907
6.19445 0.562732
6.20145 0.564795
6.20844 0.567092
6.21543 0.569578
6.22242 0.5725
6.22941 0.575863
6.2364 0.580068
6.24339 0.584479
6.25039 0.589673
6.25738 0.595864
6.26437 0.603506
6.27136 0.611775
6.27835 0.621941
6.28534 0.633896
6.29234 0.649414
6.29933 0.667197
6.30632 0.688639
6.31331 0.712993
6.3203 0.74567
6.32729 0.784782
6.33428 0.829533
6.34128 0.883001
6.34827 0.950924
6.35526 1.03209
6.36225 1.13057
6.36924 1.24207
6.37623 1.37649
6.38322 1.53217
6.39022 1.72458
6.39721 1.92173
6.4042 2.15293
6.41119 2.40606
6.41818 2.68163
6.42517 2.93734
6.43216 3.20962
6.43916 3.46274
6.44615 3.6722
6.45314 3.83113
6.46013 3.93099
6.46712 3.95064
6.47411 3.89695
6.48111 3.76855
6.4881 3.58732
6.49509 3.35823
6.50208 3.07042
6.50907 2.79685
6.51606 2.50536
6.52305 2.23601
6.53005 1.97287
6.53704 1.75114
6.54403 1.53496
6.55102 1.36449
6.55801 1.2194
6.565 1.09562
6.57199 0.989157
6.57899 0.907055
6.58598 0.839788
6.59297 0.784489
6.59996 0.740416
6.60695 0.704012
6.61394 0.67483
6.62094 0.653158
6.62793 0.633802
6.63492 0.618343
6.64191 0.605576
6.6489 0.595916
6.65589 0.586736
6.66288 0.579601
6.66988 0.57323
6.67687 0.56816
6.68386 0.563724
6.69085 0.559824
6.69784 0.556192
6.70483 0.553357
6.71182 0.550792
6.71882 0.548515
6.72581 0.54645
6.7328 0.544757
6.73979 0.543259
6.74678 0.542031
6.75377 0.540746
6.76076 0.539505
6.76776 0.538435
6.77475 0.537631
6.78174 0.536753
6.78873 0.535912
6.79572 0.53524
6.80271 0.534803
6.80971 0.534393
6.8167 0.533882
6.82369 0.533404
6.83068 0.53288
6.83767 0.532478
6.84466 0.532055
6.85165 0.531727
6.85865 0.531604
6.86564 0.531507
6.87263 0.531451
6.87962 0.531411
6.88661 0.531351
6.8936 0.531127
6.90059 0.530965
6.90759 0.530794
6.91458 0.530555
6.92157 0.530243
6.92856 0.530092
6.93555 0.529772
6.94254 0.529328
6.94953 0.528821
6.95653 0.528332
6.96352 0.527804
6.97051 0.52711
6.9775 0.526437
6.98449 0.525876
6.99148 0.52535
6.99848 0.524845
7.00547 0.5244
7.01246 0.524141
7.01945 0.523862
7.02644 0.523512
7.03343 0.523288
7.04042 0.523165
7.04742 0.523012
7.05441 0.522836
7.0614 0.522645
7.06839 0.522555
7.07538 0.522575
7.08237 0.522445
7.08936 0.522318
7.09636 0.522244
7.10335 0.522297
7.11034 0.522317
7.11733 0.522316
7.12432 0.522373
7.13131 0.522624
7.1383 0.522969
7.1453 0.523105
7.15229 0.523416
7.15928 0.523892
7.16627 0.524341
7.17326 0.524845
7.18025 0.525378
7.18725 0.52617
7.19424 0.52684
7.20123 0.527786
7.20822 0.528788
7.21521 0.530089
7.2222 0.53155
7.22919 0.533517
7.23619 0.535679
7.24318 0.538165
7.25017 0.540979
7.25716 0.54441
7.26415 0.548515
7.27114 0.553375
7.27813 0.559201
7.28513 0.566129
7.29212 0.574945
7.29911 0.585301
7.3061 0.596803
7.31309 0.611611
7.32008 0.630092
7.32707 0.652415
7.33407 0.678566
7.34106 0.711063
7.34805 0.748994
7.35504 0.798485
7.36203 0.854685
7.36902 0.920953
7.37602 0.999935
7.38301 1.09526
7.39 1.20301
7.39699 1.32451
7.40398 1.46563
7.41097 1.61919
7.41796 1.7803
7.42496 1.94792
7.43195 2.11536
7.43894 2.28017
7.44593 2.41649
7.45292 2.52565
7.45991 2.59557
7.4669 2.62654
7.4739 2.60604
7.48089 2.54343
7.48788 2.43771
7.49487 2.2981
7.50186 2.13715
7.50885 1.96159
7.51584 1.78387
7.52284 1.61217
7.52983 1.44577
7.53682 1.29671
7.54381 1.16394
7.5508 1.05274
7.55779 0.955489
7.56479 0.872495
7.57178 0.805311
7.57877 0.750167
7.58576 0.705372
7.59275 0.668913
7.59974 0.639864
7.60673 0.61542
7.61373 0.596839
7.62072 0.581233
7.62771 0.568548
7.6347 0.558248
7.64169 0.54982
7.64868 0.542907
7.65567 0.536937
7.66267 0.532014
7.66966 0.527685
7.67665 0.524157
7.68364 0.521005
7.69063 0.518243
7.69762 0.515994
7.70461 0.514017
7.71161 0.512128
7.7186 0.510406
7.72559 0.509151
7.73258 0.507927
7.73957 0.506662
7.74656 0.505481
7.75356 0.504497
7.76055 0.503528
7.76754 0.50269
7.77453 0.502081
7.78152 0.50159
7.78851 0.501077
7.7955 0.500571
7.8025 0.500217
7.80949 0.499872
7.81648 0.499545
7.82347 0.499285
7.83046 0.499085
7.83745 0.498821
7.84444 0.498466
7.85144 0.498196
7.85843 0.498046
7.86542 0.497831
7.87241 0.497521
7.8794 0.497259
7.88639 0.497067
7.89339 0.496866
7.90038 0.496681
7.90737 0.496651
7.91436 0.496727
7.92135 0.496742
7.92834 0.496908
7.93533 0.497171
7.94233 0.497363
7.94932 0.497605
7.95631 0.497916
7.9633 0.498229
7.97029 0.498605
7.97728 0.498909
7.98427 0.499426
7.99127 0.499896
7.99826 0.50031
8.00525 0.500917
8.01224 0.501748
8.01923 0.502611
8.02622 0.5037
8.03321 0.504942
8.04021 0.506349
8.0472 0.507864
8.05419 0.509438
8.06118 0.511279
8.06817 0.513408
8.07516 0.515749
8.08216 0.518351
8.08915 0.521469
8.09614 0.524926
8.10313 0.529417
8.11012 0.534368
8.11711 0.540101
8.1241 0.546611
8.1311 0.554746
8.13809 0.563846
8.14508 0.57469
8.15207 0.586955
8.15906 0.602045
8.16605 0.619837
8.17304 0.641404
8.18004 0.665808
8.18703 0.695972
8.19402 0.734298
8.20101 0.780157
8.208 0.832485
8.21499 0.898514
8.22198 0.979933
8.22898 1.07981
8.23597 1.19603
8.24296 1.33982
8.24995 1.50313
8.25694 1.71664
8.26393 1.95525
8.27093 2.22884
8.27792 2.54345
8.28491 2.91588
8.2919 3.31477
8.29889 3.7515
8.30588 4.211
8.31287 4.6708
8.31987 5.10859
8.32686 5.5113
8.33385 5.83813
8.34084 6.07541
8.34783 6.18236
8.35482 6.17159
8.36181 6.03246
8.36881 5.7687
8.3758 5.42069
8.38279 4.99122
8.38978 4.52472
8.39677 4.03152
8.40376 3.5719
8.41075 3.10585
8.41775 2.69309
8.42474 2.33315
8.43173 2.01565
8.43872 1.74108
8.44571 1.51116
8.4527 1.32239
8.4597 1.16727
8.46669 1.04178
8.47368 0.936921
8.48067 0.854118
8.48766 0.78806
8.49465 0.735126
8.50164 0.691683
8.50864 0.655503
8.51563 0.627919
8.52262 0.604873
8.52961 0.585998
8.5366 0.569853
8.54359 0.556705
8.55058 0.545718
8.55758 0.536485
8.56457 0.528484
8.57156 0.521518
8.57855 0.515957
8.58554 0.510915
8.59253 0.506608
8.59952 0.502581
8.60652 0.499298
8.61351 0.496352
8.6205 0.493699
8.62749 0.491076
8.63448 0.48903
8.64147 0.487178
8.64847 0.485406
8.65546 0.48378
8.66245 0.48247
8.66944 0.481349
8.67643 0.48018
8.68342 0.478988
8.69041 0.47808
8.69741 0.477117
8.7044 0.476212
8.71139 0.475436
8.71838 0.474736
8.72537 0.473995
8.73236 0.473433
8.73935 0.473019
8.74635 0.472617
8.75334 0.47232
8.76033 0.472153
8.76732 0.472066
8.77431 0.471995
8.7813 0.471901
8.78829 0.471921
8.79529 0.471885
8.80228 0.471896
8.80927 0.471866
8.81626 0.472002
8.82325 0.472031
8.83024 0.472183
8.83724 0.4724
8.84423 0.472849
8.85122 0.473719
8.85821 0.474803
8.8652 0.476029
8.87219 0.477252
8.87918 0.478731
8.88618 0.480409
8.89317 0.482087
8.90016 0.484052
8.90715 0.486609
8.91414 0.489815
8.92113 0.493321
8.92812 0.497376
8.93512 0.502611
8.94211 0.508788
8.9491 0.515725
8.95609 0.523985
8.96308 0.534001
8.97007 0.54646
8.97707 0.561224
8.98406 0.57801
8.99105 0.598892
8.99804 0.62532
9.00503 0.656867
9.01202 0.693833
9.01901 0.738634
9.02601 0.794185
9.033 0.864995
9.03999 0.944899
9.04698 1.04001
9.05397 1.15506
9.06096 1.2962
9.06795 1.45647
9.07495 1.63912
9.08194 1.84295
9.08893 2.07807
9.09592 2.33618
9.10291 2.59594
9.1099 2.86791
9.11689 3.1255
9.12389 3.36605
9.13088 3.5682
9.13787 3.71264
9.14486 3.79757
9.15185 3.80502
9.15884 3.74202
9.16584 3.60803
9.17283 3.41626
9.17982 3.17507
9.18681 2.90264
9.1938 2.61831
9.20079 2.34495
9.20778 2.07524
9.21478 1.82425
9.22177 1.59597
9.22876 1.40441
9.23575 1.23894
9.24274 1.09833
9.24973 0.97327
9.25672 0.87871
9.26372 0.799646
9.27071 0.73645
9.2777 0.681913
9.28469 0.640234
9.29168 0.606816
9.29867 0.580325
9.30566 0.557471
9.31266 0.539402
9.31965 0.524594
9.32664 0.512817
9.33363 0.502638
9.34062 0.4941
9.34761 0.487078
9.35461 0.481344
9.3616 0.476129
9.36859 0.471719
9.37558 0.468049
9.38257 0.46488
9.38956 0.461927
9.39655 0.459456
9.40355 0.457187
9.41054 0.455347
9.41753 0.453685
9.42452 0.452165
9.43151 0.450793
9.4385 0.449557
9.44549 0.448255
9.45249 0.447134
9.45948 0.446011
9.46647 0.445134
9.47346 0.444211
9.48045 0.4434
9.48744 0.44269
9.49443 0.441901
9.50143 0.440959
9.50842 0.440209
9.51541 0.439542
9.5224 0.438921
9.52939 0.438333
9.53638 0.438024
9.54338 0.437608
9.55037 0.437307
9.55736 0.436776
9.56435 0.436293
9.57134 0.435819
9.57833 0.435412
9.58532 0.434892
9.59232 0.434492
9.59931 0.434221
9.6063 0.433772
9.61329 0.433374
9.62028 0.433079
9.62727 0.432655
9.63426 0.432195
9.64126 0.431698
9.64825 0.431276
9.65524 0.43128
9.66223 0.431107
9.66922 0.431119
9.67621 0.43132
9.6832 0.431349
9.6902 0.431261
9.69719 0.431194
9.70418 0.431157
9.71117 0.431129
9.71816 0.431082
9.72515 0.43103
9.73215 0.430964
9.73914 0.430824
9.74613 0.430577
9.75312 0.430451
9.76011 0.430342
9.7671 0.430399
9.77409 0.430256
9.78109 0.430236
9.78808 0.430467
9.79507 0.430702
9.80206 0.430628
9.80905 0.430452
9.81604 0.430286
9.82303 0.429988
9.83003 0.42965
9.83702 0.429204
9.84401 0.42869
9.851 0.428004
9.85799 0.42744
9.86498 0.426688
9.87197 0.42596
9.87897 0.425264
9.88596 0.424614
9.89295 0.423782
9.89994 0.423336
9.90693 0.422902
9.91392 0.422558
9.92092 0.422196
9.92791 0.421815
9.9349 0.421633
9.94189 0.421328
9.94888 0.42086
9.95587 0.420434
9.96286 0.420242
9.96986 0.419943
9.97685 0.419697
9.98384 0.419311
9.99083 0.419319
9.99782 0.419409
10.0048 0.419369
10.0118 0.41925
10.0188 0.419256
10.0258 0.419091
10.0328 0.418748
10.0398 0.418532
10.0468 0.418607
10.0538 0.4184
10.0607 0.418163
10.0677 0.418124
10.0747 0.41792
10.0817 0.417766
10.0887 0.417378
10.0957 0.417357
10.1027 0.417354
10.1097 0.417154
10.1167 0.417174
10.1237 0.417141
10.1307 0.417095
10.1377 0.416813
10.1446 0.416737
10.1516 0.416891
10.1586 0.416851
10.1656 0.416996
10.1726 0.41723
10.1796 0.417416
10.1866 0.417427
10.1936 0.417479
10.2006 0.41747
10.2076 0.417536
10.2146 0.417529
10.2215 0.417436
10.2285 0.417429
10.2355 0.417611
10.2425 0.417983
10.2495 0.41825
10.2565 0.41851
10.2635 0.418809
10.2705 0.419217
10.2775 0.41968
10.2845 0.420269
10.2915 0.421265
10.2985 0.422166
10.3054 0.422921
10.3124 0.423935
10.3194 0.425195
10.3264 0.426548
10.3334 0.427857
10.3404 0.429508
10.3474 0.431578
10.3544 0.433928
10.3614 0.437003
10.3684 0.440438
10.3754 0.444395
10.3824 0.449387
10.3893 0.455334
10.3963 0.461983
10.4033 0.470396
10.4103 0.480994
10.4173 0.494102
10.4243 0.508751
10.4313 0.526793
10.4383 0.548466
10.4453 0.577457
10.4523 0.610212
10.4593 0.649447
10.4663 0.695702
10.4732 0.755226
10.4802 0.824763
10.4872 0.90296
10.4942 0.989828
10.5012 1.094
10.5082 1.21404
10.5152 1.34046
10.5222 1.46671
10.5292 1.59716
10.5362 1.73193
10.5432 1.85503
10.5501 1.94965
10.5571 2.02121
10.5641 2.05948
10.5711 2.06435
10.5781 2.0331
10.5851 1.96731
10.5921 1.87479
10.5991 1.74904
10.6061 1.61565
10.6131 1.48227
10.6201 1.34859
10.6271 1.20933
10.634 1.08407
10.641 0.976165
10.648 0.883604
10.655 0.801763
10.662 0.727308
10.669 0.669765
10.676 0.623771
10.683 0.585781
10.69 0.55161
10.697 0.526054
10.704 0.506262
10.711 0.490224
10.7179 0.476618
10.7249 0.465466
10.7319 0.456805
10.7389 0.449965
10.7459 0.444293
10.7529 0.439177
10.7599 0.435231
10.7669 0.432197
10.7739 0.429657
10.7809 0.427282
10.7879 0.425636
10.7949 0.424114
10.8018 0.422813
10.8088 0.421901
10.8158 0.421224
10.8228 0.420452
10.8298 0.419959
10.8368 0.419759
10.8438 0.419663
10.8508 0.419618
10.8578 0.419568
10.8648 0.41998
10.8718 0.420353
10.8787 0.420932
10.8857 0.421807
10.8927 0.422924
10.8997 0.424104
10.9067 0.425267
10.9137 0.426707
10.9207 0.42825
10.9277 0.429836
10.9347 0.432013
10.9417 0.434217
10.9487 0.436998
10.9557 0.440232
10.9626 0.444253
10.9696 0.448909
10.9766 0.454191
10.9836 0.459899
10.9906 0.467048
10.9976 0.475655
11.0046 0.484878
11.0116 0.49577
11.0186 0.509435
11.0256 0.526219
11.0326 0.545434
11.0396 0.567732
11.0465 0.594044
11.0535 0.627724
11.0605 0.669948
11.0675 0.717039
11.0745 0.775216
11.0815 0.846882
11.0885 0.939012
11.0955 1.04477
11.1025 1.17108
11.1095 1.31841
11.1165 1.5158
11.1235 1.73796
11.1304 1.98694
11.1374 2.27488
11.1444 2.62262
11.1514 3.00894
11.1584 3.41784
11.1654 3.83941
11.1724 4.27379
11.1794 4.71844
11.1864 5.11463
11.1934 5.43551
11.2004 5.66241
11.2073 5.79538
11.2143 5.81396
11.2213 5.70742
11.2283 5.49317
11.2353 5.16662
11.2423 4.76221
11.2493 4.32097
11.2563 3.88016
11.2633 3.43767
11.2703 2.98019
11.2773 2.57198
11.2843 2.23363
11.2912 1.92671
11.2982 1.64946
11.3052 1.4209
11.3122 1.23741
11.3192 1.08585
11.3262 0.964435
11.3332 0.856574
11.3402 0.775593
11.3472 0.712476
11.3542 0.661342
11.3612 0.616129
11.3682 0.582444
11.3751 0.555001
11.3821 0.533676
11.3891 0.515108
11.3961 0.499801
11.4031 0.487266
11.4101 0.477544
11.4171 0.468537
11.4241 0.46051
11.4311 0.454103
11.4381 0.448762
11.4451 0.444279
11.4521 0.439985
11.459 0.436514
11.466 0.433607
11.473 0.431542
11.48 0.429637
11.487 0.428054
11.494 0.426971
11.501 0.426333
11.508 0.425894
11.515 0.425638
11.522 0.42565
11.529 0.425878
11.5359 0.426629
11.5429 0.4277
11.5499 0.428954
11.5569 0.43039
11.5639 0.432227
11.5709 0.43446
11.5779 0.437317
11.5849 0.440478
11.5919 0.444573
11.5989 0.449562
11.6059 0.455689
11.6129 0.462556
11.6198 0.47096
11.6268 0.480651
11.6338 0.493415
11.6408 0.507665
11.6478 0.524121
11.6548 0.544278
11.6618 0.569746
11.6688 0.600088
11.6758 0.635915
11.6828 0.679942
11.6898 0.733123
11.6968 0.803348
11.7037 0.884029
11.7107 0.978555
11.7177 1.09223
11.7247 1.24454
11.7317 1.41097
11.7387 1.60311
11.7457 1.82438
11.7527 2.09461
11.7597 2.39201
11.7667 2.70925
11.7737 3.02976
11.7806 3.37282
11.7876 3.73316
11.7946 4.03548
11.8016 4.28045
11.8086 4.47018
11.8156 4.58666
11.8226 4.60314
11.8296 4.52518
11.8366 4.3581
11.8436 4.10858
11.8506 3.78931
11.8576 3.45862
11.8645 3.12016
11.8715 2.76921
11.8785 2.40233
11.8855 2.09744
11.8925 1.82611
11.8995 1.58958
11.9065 1.37126
11.9135 1.19009
11.9205 1.04791
11.9275 0.933456
11.9345 0.83313
11.9415 0.748412
11.9484 0.687811
11.9554 0.638167
11.9624 0.59765
11.9694 0.562979
11.9764 0.536608
11.9834 0.51582
11.9904 0.499479
11.9974 0.484595
12.0044 0.472866
12.0114 0.463553
12.0184 0.455809
12.0254 0.448595
12.0323 0.442475
12.0393 0.437335
12.0463 0.432923
12.0533 0.429397
12.0603 0.425884
12.0673 0.422935
12.0743 0.420762
12.0813 0.418942
12.0883 0.417154
12.0953 0.415948
12.1023 0.415043
12.1092 0.414613
12.1162 0.414381
12.1232 0.414324
12.1302 0.4146
12.1372 0.415208
12.1442 0.416213
12.1512 0.417262
12.1582 0.418738
12.1652 0.420397
12.1722 0.422856
12.1792 0.426062
12.1862 0.430297
12.1931 0.435077
12.2001 0.440428
12.2071 0.447076
12.2141 0.455343
12.2211 0.464567
12.2281 0.475524
12.2351 0.489288
12.2421 0.507567
12.2491 0.528075
12.2561 0.552875
12.2631 0.582926
12.2701 0.622721
12.277 0.670362
12.284 0.725348
12.291 0.789411
12.298 0.874867
12.305 0.979754
12.312 1.09219
12.319 1.22502
12.326 1.38646
12.333 1.57621
12.34 1.77613
12.347 1.99195
12.354 2.21554
12.3609 2.46551
12.3679 2.69529
12.3749 2.89436
12.3819 3.05542
12.3889 3.18465
12.3959 3.25233
12.4029 3.25206
12.4099 3.18929
12.4169 3.06327
12.4239 2.87995
12.4309 2.66528
12.4378 2.44441
12.4448 2.21046
12.4518 1.95288
12.4588 1.71997
12.4658 1.52123
12.4728 1.33911
12.4798 1.17004
12.4868 1.02777
12.4938 0.911352
12.5008 0.817662
12.5078 0.738728
12.5148 0.668978
12.5217 0.616449
12.5287 0.576348
12.5357 0.542611
12.5427 0.513669
12.5497 0.491436
12.5567 0.474094
12.5637 0.459936
12.5707 0.448178
12.5777 0.437746
12.5847 0.429661
12.5917 0.423087
12.5987 0.417602
12.6056 0.412799
12.6126 0.408758
12.6196 0.405307
12.6266 0.402489
12.6336 0.399605
12.6406 0.397185
12.6476 0.395
12.6546 0.393358
12.6616 0.391571
12.6686 0.389877
12.6756 0.388728
12.6826 0.388052
12.6895 0.387296
12.6965 0.386627
12.7035 0.386242
12.7105 0.386173
12.7175 0.386083
12.7245 0.386149
12.7315 0.386546
12.7385 0.387075
12.7455 0.387661
12.7525 0.388203
12.7595 0.388871
12.7664 0.389997
12.7734 0.391242
12.7804 0.392961
12.7874 0.395262
12.7944 0.398142
12.8014 0.401311
12.8084 0.405465
12.8154 0.411042
12.8224 0.417587
12.8294 0.425081
12.8364 0.434592
12.8434 0.446614
12.8503 0.460617
12.8573 0.47736
12.8643 0.496546
12.8713 0.520731
12.8783 0.549743
12.8853 0.580192
12.8923 0.613423
12.8993 0.653241
12.9063 0.695528
12.9133 0.735801
12.9203 0.77487
12.9273 0.811976
12.9342 0.844551
12.9412 0.868492
12.9482 0.881465
12.9552 0.883302
12.9622 0.873241
12.9692 0.853203
12.9762 0.825491
12.9832 0.789687
12.9902 0.74767
12.9972 0.703381
13.0042 0.660818
13.0112 0.620839
13.0181 0.584154
13.0251 0.547577
13.0321 0.517684
13.0391 0.493447
13.0461 0.472104
13.0531 0.453311
13.0601 0.438732
13.0671 0.427058
13.0741 0.417718
13.0811 0.410256
13.0881 0.403788
13.095 0.398816
13.102 0.395042
13.109 0.392106
13.116 0.389363
13.123 0.387305
13.13 0.385804
13.137 0.384604
13.144 0.38341
13.151 0.38274
13.158 0.382236
13.165 0.382002
13.172 0.381501
13.1789 0.381181
13.1859 0.381292
13.1929 0.381425
13.1999 0.381831
13.2069 0.382466
13.2139 0.383423
13.2209 0.384701
13.2279 0.385887
13.2349 0.387592
13.2419 0.389246
13.2489 0.390859
13.2559 0.392898
13.2628 0.395693
13.2698 0.398298
13.2768 0.40161
13.2838 0.405408
13.2908 0.410216
13.2978 0.415871
13.3048 0.422986
13.3118 0.43101
13.3188 0.440766
13.3258 0.453197
13.3328 0.467235
13.3398 0.484119
13.3467 0.505074
13.3537 0.531229
13.3607 0.562244
13.3677 0.599891
13.3747 0.644008
13.3817 0.70121
13.3887 0.771301
13.3957 0.848787
13.4027 0.938807
13.4097 1.05325
13.4167 1.18017
13.4236 1.31725
13.4306 1.46942
13.4376 1.63293
13.4446 1.80291
13.4516 1.96925
13.4586 2.11263
13.4656 2.23482
13.4726 2.33495
13.4796 2.39044
13.4866 2.39929
13.4936 2.36251
13.5006 2.28041
13.5075 2.16484
13.5145 2.02159
13.5215 1.8654
13.5285 1.69515
13.5355 1.51536
13.5425 1.35364
13.5495 1.21276
13.5565 1.07601
13.5635 0.953897
13.5705 0.853163
13.5775 0.768706
13.5845 0.699004
13.5914 0.640379
13.5984 0.590556
13.6054 0.55324
13.6124 0.524025
13.6194 0.49909
13.6264 0.478499
13.6334 0.463578
13.6404 0.45143
13.6474 0.441501
13.6544 0.43314
13.6614 0.426922
13.6684 0.42232
13.6753 0.418573
13.6823 0.415672
13.6893 0.41374
13.6963 0.412461
13.7033 0.411478
13.7103 0.411239
13.7173 0.411364
13.7243 0.411746
13.7313 0.412449
13.7383 0.413858
13.7453 0.415617
13.7522 0.418041
13.7592 0.421152
13.7662 0.425059
13.7732 0.429829
13.7802 0.435215
13.7872 0.442004
13.7942 0.45004
13.8012 0.459692
13.8082 0.471813
13.8152 0.485749
13.8222 0.501745
13.8292 0.522348
13.8361 0.547896
13.8431 0.576536
13.8501 0.612483
13.8571 0.656643
13.8641 0.711899
13.8711 0.777887
13.8781 0.857269
13.8851 0.951218
13.8921 1.07528
13.8991 1.21895
13.9061 1.38211
13.9131 1.5812
13.92 1.82651
13.927 2.09392
13.934 2.39364
13.941 2.72657
13.948 3.08545
13.955 3.46355
13.962 3.82417
13.969 4.1484
13.976 4.44562
13.983 4.67937
13.99 4.81033
13.997 4.8471
14.0039 4.78441
14.0109 4.62488
14.0179 4.38172
14.0249 4.07299
14.0319 3.7335
14.0389 3.34066
14.0459 2.95323
14.0529 2.60045
14.0599 2.27446
14.0669 1.9548
14.0739 1.68655
14.0808 1.45838
14.0878 1.26625
14.0948 1.10726
14.1018 0.970341
14.1088 0.858189
14.1158 0.774672
14.1228 0.705504
14.1298 0.645481
14.1368 0.600184
14.1438 0.564807
14.1508 0.535351
14.1578 0.51141
14.1647 0.492188
14.1717 0.476035
14.1787 0.463141
14.1857 0.451763
14.1927 0.442354
14.1997 0.434249
14.2067 0.427286
14.2137 0.421385
14.2207 0.416075
14.2277 0.411817
14.2347 0.408135
14.2417 0.405232
14.2486 0.402474
14.2556 0.400123
14.2626 0.398007
14.2696 0.396157
14.2766 0.394334
14.2836 0.392537
14.2906 0.391022
14.2976 0.389896
14.3046 0.389105
14.3116 0.388405
14.3186 0.387828
14.3256 0.387231
14.3325 0.386765
14.3395 0.386095
14.3465 0.385606
14.3535 0.384994
14.3605 0.38458
14.3675 0.383801
14.3745 0.382898
14.3815 0.382473
14.3885 0.382296
14.3955 0.381982
14.4025 0.38187
14.4094 0.381767
14.4164 0.381534
14.4234 0.381322
14.4304 0.381022
14.4374 0.3806
14.4444 0.380227
14.4514 0.379922
14.4584 0.379553
14.4654 0.379069
14.4724 0.378672
14.4794 0.378163
14.4864 0.377719
14.4933 0.377609
14.5003 0.377877
14.5073 0.378103
14.5143 0.378419
14.5213 0.378782
14.5283 0.379023
14.5353 0.378929
14.5423 0.378775
14.5493 0.378786
14.5563 0.378615
14.5633 0.378417
14.5703 0.378411
14.5772 0.378626
14.5842 0.378646
14.5912 0.378555
14.5982 0.378693
14.6052 0.378791
14.6122 0.37904
14.6192 0.379209
14.6262 0.379419
14.6332 0.379445
14.6402 0.37927
14.6472 0.379263
14.6541 0.379442
14.6611 0.379471
14.6681 0.379371
14.6751 0.379276
14.6821 0.379473
14.6891 0.379753
14.6961 0.38029
14.7031 0.380926
14.7101 0.381711
14.7171 0.382369
14.7241 0.3828
14.7311 0.383395
14.738 0.384308
14.745 0.385504
14.752 0.386482
14.759 0.387821
14.766 0.389451
14.773 0.391407
14.78 0.393736
14.787 0.396775
14.794 0.399913
14.801 0.403734
14.808 0.408296
14.815 0.413661
14.8219 0.420572
14.8289 0.428188
14.8359 0.437993
14.8429 0.450026
14.8499 0.464722
14.8569 0.482331
14.8639 0.504698
14.8709 0.530081
14.8779 0.561643
14.8849 0.599463
14.8919 0.641924
14.8989 0.692652
14.9058 0.751983
14.9128 0.812802
14.9198 0.877986
14.9268 0.950339
14.9338 1.01698
14.9408 1.07968
14.9478 1.13427
14.9548 1.1766
14.9618 1.20103
14.9688 1.20872
14.9758 1.19757
14.9827 1.16777
14.9897 1.12161
14.9967 1.06577
15.0037 1.00157
15.0107 0.930769
15.0177 0.861697
15.0247 0.794204
15.0317 0.730747
15.0387 0.676606
15.0457 0.627607
15.0527 0.583342
15.0597 0.547898
15.0666 0.519117
15.0736 0.494189
15.0806 0.475007
15.0876 0.459086
15.0946 0.447023
15.1016 0.438142
15.1086 0.430919
15.1156 0.424966
15.1226 0.421085
15.1296 0.418135
15.1366 0.41598
15.1436 0.414446
15.1505 0.413559
15.1575 0.413034
15.1645 0.413242
15.1715 0.414405
15.1785 0.416165
15.1855 0.418157
15.1925 0.421065
15.1995 0.424819
15.2065 0.42918
15.2135 0.434177
15.2205 0.439955
15.2275 0.446882
15.2344 0.454756
15.2414 0.463991
15.2484 0.475212
15.2554 0.489261
15.2624 0.506084
15.2694 0.524806
15.2764 0.548586
15.2834 0.578101
15.2904 0.613583
15.2974 0.657363
15.3044 0.710392
15.3113 0.774065
15.3183 0.856647
15.3253 0.955997
15.3323 1.0699
15.3393 1.21375
15.3463 1.38828
15.3533 1.5832
15.3603 1.81501
15.3673 2.08173
15.3743 2.3707
15.3813 2.6912
15.3883 3.02008
15.3952 3.34215
15.4022 3.6601
15.4092 3.93983
15.4162 4.15405
15.4232 4.30308
15.4302 4.36675
15.4372 4.33598
15.4442 4.21759
15.4512 4.01829
15.4582 3.7649
15.4652 3.44762
15.4722 3.11862
15.4791 2.78986
15.4861 2.45475
15.4931 2.14109
15.5001 1.8657
15.5071 1.61429
15.5141 1.40228
15.5211 1.22566
15.5281 1.0685
15.5351 0.945593
15.5421 0.848634
15.5491 0.765408
15.5561 0.698457
15.563 0.647273
15.57 0.605088
15.577 0.572251
15.584 0.545439
15.591 0.523472
15.598 0.506651
15.605 0.493815
15.612 0.482616
15.619 0.473961
15.626 0.467472
15.633 0.462732
15.6399 0.45919
15.6469 0.45679
15.6539 0.455632
15.6609 0.455717
15.6679 0.456514
15.6749 0.458838
15.6819 0.463044
15.6889 0.468662
15.6959 0.476386
15.7029 0.485898
15.7099 0.497356
15.7169 0.511917
15.7238 0.528495
15.7308 0.550376
15.7378 0.577689
15.7448 0.609315
15.7518 0.648039
15.7588 0.700714
15.7658 0.76156
15.7728 0.834348
15.7798 0.927657
15.7868 1.0379
15.7938 1.17237
15.8008 1.33167
15.8077 1.51082
15.8147 1.71913
15.8217 1.96891
15.8287 2.21958
15.8357 2.49377
15.8427 2.78163
15.8497 3.05408
15.8567 3.29431
15.8637 3.50527
15.8707 3.65505
15.8777 3.73639
15.8847 3.74261
15.8916 3.67429
15.8986 3.53122
15.9056 3.3222
15.9126 3.0825
15.9196 2.81526
15.9266 2.52145
15.9336 2.24189
15.9406 1.96935
15.9476 1.72263
15.9546 1.50623
15.9616 1.31299
15.9685 1.14084
15.9755 1.00872
15.9825 0.895548
15.9895 0.800684
15.9965 0.724387
16.0035 0.665044
16.0105 0.616469
16.0175 0.578548
16.0245 0.546538
16.0315 0.521801
16.0385 0.503344
16.0455 0.487675
16.0524 0.474377
16.0594 0.464531
16.0664 0.456544
16.0734 0.449985
16.0804 0.444652
16.0874 0.440125
16.0944 0.437078
16.1014 0.434925
16.1084 0.433296
16.1154 0.432633
16.1224 0.432535
16.1294 0.433369
16.1363 0.434695
16.1433 0.437349
16.1503 0.441204
16.1573 0.445908
16.1643 0.452043
16.1713 0.460984
16.1783 0.471406
16.1853 0.484665
16.1923 0.502014
16.1993 0.523145
16.2063 0.548066
16.2133 0.579712
16.2202 0.61691
16.2272 0.662908
16.2342 0.719716
16.2412 0.782919
16.2482 0.856629
16.2552 0.947055
16.2622 1.04349
16.2692 1.14572
16.2762 1.25991
16.2832 1.36849
16.2902 1.4727
16.2971 1.56694
16.3041 1.64162
16.3111 1.69081
16.3181 1.71428
16.3251 1.70727
16.3321 1.67004
16.3391 1.60411
16.3461 1.5185
16.3531 1.41816
16.3601 1.30623
16.3671 1.19546
16.3741 1.08395
16.381 0.977505
16.388 0.885647
16.395 0.802794
16.402 0.72778
16.409 0.667265
16.416 0.61708
16.423 0.574291
16.43 0.540682
16.437 0.512042
16.444 0.489984
16.451 0.472694
16.458 0.458924
16.4649 0.44763
16.4719 0.439184
16.4789 0.432522
16.4859 0.427663
16.4929 0.424162
16.4999 0.421963
16.5069 0.420654
16.5139 0.419842
16.5209 0.419737
16.5279 0.420485
16.5349 0.421655
16.5419 0.423296
16.5488 0.425443
16.5558 0.428364
16.5628 0.432271
16.5698 0.437614
16.5768 0.444429
16.5838 0.453048
16.5908 0.463219
16.5978 0.475894
16.6048 0.492563
16.6118 0.512435
16.6188 0.536462
16.6257 0.567367
16.6327 0.603967
16.6397 0.649333
16.6467 0.705663
16.6537 0.770068
16.6607 0.848009
16.6677 0.945745
16.6747 1.05223
16.6817 1.17528
16.6887 1.31897
16.6957 1.47284
16.7027 1.63029
16.7096 1.79469
16.7166 1.94646
16.7236 2.0853
16.7306 2.20082
16.7376 2.27677
16.7446 2.31317
16.7516 2.30555
16.7586 2.25632
16.7656 2.16667
16.7726 2.04172
16.7796 1.89731
16.7866 1.73475
16.7935 1.57027
16.8005 1.41308
16.8075 1.25971
16.8145 1.11678
16.8215 0.998441
16.8285 0.892357
16.8355 0.802022
16.8425 0.726673
16.8495 0.66598
16.8565 0.617127
16.8635 0.57901
16.8705 0.546277
16.8774 0.521609
16.8844 0.503028
16.8914 0.488096
16.8984 0.47621
16.9054 0.467734
16.9124 0.461226
16.9194 0.456632
16.9264 0.453734
16.9334 0.452264
16.9404 0.452428
16.9474 0.454113
16.9543 0.457298
16.9613 0.461691
16.9683 0.467308
16.9753 0.475627
16.9823 0.48555
16.9893 0.497859
16.9963 0.513344
17.0033 0.53154
17.0103 0.554318
17.0173 0.58349
17.0243 0.617999
17.0313 0.661123
17.0382 0.716284
17.0452 0.782665
17.0522 0.863053
17.0592 0.962025
17.0662 1.07955
17.0732 1.22907
17.0802 1.40404
17.0872 1.59994
17.0942 1.8369
17.1012 2.11526
17.1082 2.40713
17.1152 2.72794
17.1221 3.06249
17.1291 3.38708
17.1361 3.69731
17.1431 3.95878
17.1501 4.15889
17.1571 4.28803
17.1641 4.32886
17.1711 4.27882
17.1781 4.13671
17.1851 3.91996
17.1921 3.64885
17.199 3.33305
17.206 3.0038
17.213 2.67188
17.22 2.33317
17.227 2.03799
17.234 1.7757
17.241 1.53234
17.248 1.32422
17.255 1.15699
17.262 1.0148
17.269 0.899326
17.276 0.802835
17.2829 0.725365
17.2899 0.667312
17.2969 0.62002
17.3039 0.579691
17.3109 0.549799
17.3179 0.526034
17.3249 0.506317
17.3319 0.490472
17.3389 0.478683
17.3459 0.469756
17.3529 0.463015
17.3599 0.457701
17.3668 0.454187
17.3738 0.452748
17.3808 0.452607
17.3878 0.453748
17.3948 0.456294
17.4018 0.460643
17.4088 0.466386
17.4158 0.474796
17.4228 0.486634
17.4298 0.50105
17.4368 0.518915
17.4438 0.542284
17.4507 0.57164
17.4577 0.607041
17.4647 0.651901
17.4717 0.704847
17.4787 0.772103
17.4857 0.852389
17.4927 0.943226
17.4997 1.04929
17.5067 1.181
17.5137 1.31783
17.5207 1.46368
17.5276 1.62372
17.5346 1.78162
17.5416 1.93077
17.5486 2.06411
17.5556 2.16666
17.5626 2.23595
17.5696 2.26659
17.5766 2.25245
17.5836 2.1946
17.5906 2.09761
17.5976 1.97514
17.6046 1.82893
17.6115 1.66993
17.6185 1.50946
17.6255 1.34783
17.6325 1.19912
17.6395 1.07074
17.6465 0.950453
17.6535 0.846558
17.6605 0.761886
17.6675 0.690821
17.6745 0.632308
17.6815 0.58427
17.6885 0.545353
17.6954 0.514719
17.7024 0.490496
17.7094 0.469395
17.7164 0.453688
17.7234 0.441569
17.7304 0.431032
17.7374 0.42207
17.7444 0.414624
17.7514 0.408422
17.7584 0.403579
17.7654 0.399373
17.7724 0.396302
17.7793 0.393716
17.7863 0.391677
17.7933 0.389426
17.8003 0.388083
17.8073 0.386659
17.8143 0.385296
17.8213 0.383796
17.8283 0.382974
17.8353 0.382159
17.8423 0.381101
17.8493 0.379728
17.8562 0.378515
17.8632 0.377387
17.8702 0.376535
17.8772 0.375743
17.8842 0.375071
17.8912 0.374115
17.8982 0.373058
17.9052 0.372323
17.9122 0.371761
17.9192 0.37102
17.9262 0.370189
17.9332 0.369631
17.9401 0.369016
17.9471 0.368742
17.9541 0.368526
17.9611 0.368163
17.9681 0.36732
17.9751 0.366816
17.9821 0.366162
17.9891 0.365734
17.9961 0.365475
18.0031 0.36534
18.0101 0.36583
18.0171 0.366308
18.024 0.366854
18.031 0.367779
18.038 0.368795
18.045 0.369242
18.052 0.368783
18.059 0.369031
18.066 0.369123
18.073 0.369276
18.08 0.369436
18.087 0.369368
18.094 0.369168
18.101 0.369468
18.1079 0.369735
18.1149 0.37007
18.1219 0.371039
18.1289 0.372182
18.1359 0.373062
18.1429 0.374344
18.1499 0.375567
18.1569 0.377251
18.1639 0.379248
18.1709 0.381885
18.1779 0.385199
18.1848 0.388482
18.1918 0.392589
18.1988 0.397981
18.2058 0.403923
18.2128 0.411739
18.2198 0.421884
18.2268 0.434104
18.2338 0.448381
18.2408 0.465711
18.2478 0.487885
18.2548 0.515692
18.2618 0.548676
18.2687 0.587075
18.2757 0.634613
18.2827 0.691966
18.2897 0.755666
18.2967 0.830066
18.3037 0.910794
18.3107 1.00058
18.3177 1.09197
18.3247 1.18039
18.3317 1.26213
18.3387 1.33787
18.3457 1.39337
18.3526 1.42718
18.3596 1.43763
18.3666 1.42352
18.3736 1.38559
18.3806 1.32719
18.3876 1.25394
18.3946 1.16601
18.4016 1.07362
18.4086 0.985423
18.4156 0.897173
18.4226 0.812206
18.4296 0.738653
18.4365 0.673761
18.4435 0.619154
18.4505 0.571506
18.4575 0.532357
18.4645 0.501354
18.4715 0.477462
18.4785 0.456794
18.4855 0.440735
18.4925 0.428737
18.4995 0.419265
18.5065 0.411425
18.5134 0.405426
18.5204 0.401528
18.5274 0.398751
18.5344 0.396025
18.5414 0.394069
18.5484 0.393169
18.5554 0.393408
18.5624 0.394811
18.5694 0.396886
18.5764 0.400476
18.5834 0.405455
18.5904 0.412398
18.5973 0.420632
18.6043 0.431136
18.6113 0.443191
18.6183 0.459342
18.6253 0.478978
18.6323 0.502476
18.6393 0.531922
18.6463 0.567254
18.6533 0.61109
18.6603 0.662925
18.6673 0.723166
18.6743 0.792516
18.6812 0.876158
18.6882 0.962836
18.6952 1.0553
18.7022 1.15096
18.7092 1.24406
18.7162 1.32922
18.7232 1.39912
18.7302 1.44946
18.7372 1.47684
18.7442 1.47911
18.7512 1.45611
18.7582 1.40777
18.7651 1.33866
18.7721 1.25661
18.7791 1.16527
18.7861 1.07165
18.7931 0.975251
18.8001 0.883379
18.8071 0.802008
18.8141 0.732874
18.8211 0.668341
18.8281 0.615157
18.8351 0.572715
18.842 0.537833
18.849 0.509289
18.856 0.487675
18.863 0.471615
18.87 0.459358
18.877 0.450311
18.884 0.444011
18.891 0.440548
18.898 0.439568
18.905 0.440768
18.912 0.443958
18.919 0.449332
18.9259 0.456696
18.9329 0.466647
18.9399 0.480033
18.9469 0.495808
18.9539 0.51425
18.9609 0.538221
18.9679 0.567827
18.9749 0.603192
18.9819 0.647062
18.9889 0.702205
18.9959 0.772855
19.0029 0.857559
19.0098 0.960893
19.0168 1.08899
19.0238 1.25295
19.0308 1.43788
19.0378 1.66092
19.0448 1.9254
19.0518 2.23311
19.0588 2.57481
19.0658 2.93665
19.0728 3.31729
19.0798 3.70835
19.0868 4.07923
19.0937 4.38941
19.1007 4.64272
19.1077 4.81189
19.1147 4.87938
19.1217 4.83845
19.1287 4.69887
19.1357 4.46017
19.1427 4.15494
19.1497 3.80084
19.1567 3.42378
19.1637 3.02099
19.1706 2.64853
19.1776 2.29657
19.1846 1.97867
19.1916 1.69884
19.1986 1.4574
19.2056 1.25913
19.2126 1.09566
19.2196 0.957518
19.2266 0.845411
19.2336 0.760431
19.2406 0.690866
19.2476 0.633437
19.2545 0.590038
19.2615 0.556102
19.2685 0.530256
19.2755 0.508682
19.2825 0.493169
19.2895 0.481999
19.2965 0.474371
19.3035 0.46896
19.3105 0.467048
19.3175 0.467595
19.3245 0.470885
19.3315 0.47718
19.3384 0.48765
19.3454 0.501863
19.3524 0.52064
19.3594 0.546183
19.3664 0.578402
19.3734 0.618225
19.3804 0.667764
19.3874 0.731134
19.3944 0.807444
19.4014 0.899459
19.4084 1.00636
19.4154 1.13812
19.4223 1.28581
19.4293 1.44528
19.4363 1.61712
19.4433 1.79684
19.4503 1.97333
19.4573 2.13236
19.4643 2.26988
19.4713 2.369
19.4783 2.42843
19.4853 2.4386
19.4923 2.40063
19.4992 2.31439
19.5062 2.19044
19.5132 2.03681
19.5202 1.86726
19.5272 1.68348
19.5342 1.50301
19.5412 1.33029
19.5482 1.17654
19.5552 1.03442
19.5622 0.910116
19.5692 0.8074
19.5762 0.722529
19.5831 0.651414
19.5901 0.592422
19.5971 0.546488
19.6041 0.509636
19.6111 0.479903
19.6181 0.454837
19.6251 0.435695
19.6321 0.420483
19.6391 0.407743
19.6461 0.397641
19.6531 0.389731
19.6601 0.383073
19.667 0.377544
19.674 0.373233
19.681 0.369496
19.688 0.366452
19.695 0.363462
19.702 0.360567
19.709 0.358242
19.716 0.356552
19.723 0.354626
19.73 0.3522
19.737 0.350857
19.7439 0.349284
19.7509 0.347858
19.7579 0.347326
19.7649 0.346802
19.7719 0.34591
19.7789 0.344825
19.7859 0.343892
19.7929 0.342934
19.7999 0.342188
19.8069 0.341827
19.8139 0.34128
19.8209 0.340775
19.8278 0.340781
19.8348 0.341464
19.8418 0.341902
19.8488 0.34253
19.8558 0.342876
19.8628 0.343207
19.8698 0.343081
19.8768 0.343041
19.8838 0.343478
19.8908 0.344
19.8978 0.344727
19.9048 0.344996
19.9117 0.345054
19.9187 0.345922
19.9257 0.346613
19.9327 0.347788
19.9397 0.350038
19.9467 0.352149
19.9537 0.35483
19.9607 0.35761
19.9677 0.361445
19.9747 0.365887
19.9817 0.370475
19.9887 0.375397
19.9956 0.381201
20.0026 0.387617
20.0096 0.395592
20.0166 0.404987
20.0236 0.41545
20.0306 0.428334
20.0376 0.444195
20.0446 0.463674
20.0516 0.487863
20.0586 0.517796
20.0656 0.556102
20.0725 0.601436
20.0795 0.657894
20.0865 0.727489
20.0935 0.816685
20.1005 0.922221
20.1075 1.04891
20.1145 1.20557
20.1215 1.39626
20.1285 1.61755
20.1355 1.86417
20.1425 2.14902
20.1495 2.46311
20.1564 2.78438
20.1634 3.10356
20.1704 3.4082
20.1774 3.6867
20.1844 3.89726
20.1914 4.04071
20.1984 4.09892
20.2054 4.0695
20.2124 3.9532
20.2194 3.76318
20.2264 3.5037
20.2334 3.20238
20.2403 2.87853
20.2473 2.55607
20.2543 2.23713
20.2613 1.93657
20.2683 1.67028
20.2753 1.44206
20.2823 1.24354
20.2893 1.07054
20.2963 0.934465
20.3033 0.823581
20.3103 0.733986
20.3173 0.658932
20.3242 0.60271
20.3312 0.558342
20.3382 0.522074
20.3452 0.493428
20.3522 0.471445
20.3592 0.455185
20.3662 0.443067
20.3732 0.433588
20.3802 0.427705
20.3872 0.425132
20.3942 0.42485
20.4011 0.427793
20.4081 0.433749
20.4151 0.442885
20.4221 0.45579
20.4291 0.473671
20.4361 0.496244
20.4431 0.525641
20.4501 0.56328
20.4571 0.609872
20.4641 0.666501
20.4711 0.732152
20.4781 0.813069
20.485 0.907129
20.492 1.01034
20.499 1.12299
20.506 1.2414
20.513 1.36248
20.52 1.47268
20.527 1.57066
20.534 1.64661
20.541 1.69765
20.548 1.71607
20.555 1.70212
20.562 1.6549
20.5689 1.5814
20.5759 1.48499
20.5829 1.37494
20.5899 1.25391
20.5969 1.13089
20.6039 1.01414
20.6109 0.907728
20.6179 0.809083
20.6249 0.721587
20.6319 0.648994
20.6389 0.588417
20.6459 0.537321
20.6528 0.494297
20.6598 0.460256
20.6668 0.433619
20.6738 0.41139
20.6808 0.394233
20.6878 0.380919
20.6948 0.370864
20.7018 0.362493
20.7088 0.355462
20.7158 0.350174
20.7228 0.345873
20.7297 0.341809
20.7367 0.33832
20.7437 0.335912
20.7507 0.333535
20.7577 0.331082
20.7647 0.328795
20.7717 0.327582
20.7787 0.326033
20.7857 0.324335
20.7927 0.323278
20.7997 0.32256
20.8067 0.321468
20.8136 0.320508
20.8206 0.320383
20.8276 0.320022
20.8346 0.319391
20.8416 0.319144
20.8486 0.319216
20.8556 0.318971
20.8626 0.318939
20.8696 0.318808
20.8766 0.318916
20.8836 0.318583
20.8906 0.318798
20.8975 0.318507
20.9045 0.318641
20.9115 0.318405
20.9185 0.317785
20.9255 0.317648
20.9325 0.317657
20.9395 0.3176
20.9465 0.317551
20.9535 0.317851
20.9605 0.318199
20.9675 0.318241
20.9745 0.318596
20.9814 0.319142
20.9884 0.320114
20.9954 0.321177
21.0024 0.321961
21.0094 0.322724
21.0164 0.323985
21.0234 0.324835
21.0304 0.325573
21.0374 0.326196
21.0444 0.3285
21.0514 0.330549
21.0583 0.332244
21.0653 0.33522
21.0723 0.338874
21.0793 0.343416
21.0863 0.348515
21.0933 0.355267
21.1003 0.3638
21.1073 0.374576
21.1143 0.38738
21.1213 0.40472
21.1283 0.425079
21.1353 0.448868
21.1422 0.478876
21.1492 0.516198
21.1562 0.558698
21.1632 0.608415
21.1702 0.665129
21.1772 0.727416
21.1842 0.794492
21.1912 0.862308
21.1982 0.928163
21.2052 0.990878
21.2122 1.04058
21.2192 1.07732
21.2261 1.09732
21.2331 1.10035
21.2401 1.08458
21.2471 1.05198
21.2541 1.00472
21.2611 0.946235
21.2681 0.882285
21.2751 0.817473
21.2821 0.749616
21.2891 0.686698
21.2961 0.630897
21.3031 0.581175
21.31 0.538635
21.317 0.502552
21.324 0.473847
21.331 0.451771
21.338 0.433547
21.345 0.420032
21.352 0.410792
21.359 0.404321
21.366 0.400231
21.373 0.399829
21.38 0.401675
21.3869 0.405899
21.3939 0.412428
21.4009 0.42218
21.4079 0.433733
21.4149 0.450267
21.4219 0.471662
21.4289 0.497497
21.4359 0.529878
21.4429 0.570561
21.4499 0.622717
21.4569 0.685338
21.4639 0.761456
21.4708 0.855265
21.4778 0.975106
21.4848 1.11092
21.4918 1.27365
21.4988 1.46551
21.5058 1.67975
21.5128 1.91768
21.5198 2.16133
21.5268 2.40848
21.5338 2.65285
21.5408 2.86481
21.5478 3.03096
21.5547 3.14656
21.5617 3.19947
21.5687 3.18332
21.5757 3.10007
21.5827 2.95772
21.5897 2.76173
21.5967 2.53502
21.6037 2.29676
21.6107 2.04196
21.6177 1.79549
21.6247 1.57331
21.6317 1.3716
21.6386 1.19323
21.6456 1.03868
21.6526 0.912123
21.6596 0.811443
21.6666 0.726447
21.6736 0.657563
21.6806 0.60685
21.6876 0.566743
21.6946 0.535605
21.7016 0.513477
21.7086 0.497851
21.7155 0.48833
21.7225 0.483666
21.7295 0.484535
21.7365 0.489641
21.7435 0.499626
21.7505 0.515176
21.7575 0.536701
21.7645 0.565126
21.7715 0.602092
21.7785 0.649758
21.7855 0.710462
21.7925 0.784345
21.7994 0.875048
21.8064 0.994339
21.8134 1.12944
21.8204 1.2893
21.8274 1.47912
21.8344 1.69357
21.8414 1.92876
21.8484 2.1717
21.8554 2.41595
21.8624 2.65879
21.8694 2.86915
21.8764 3.03328
21.8833 3.14751
21.8903 3.19758
21.8973 3.17945
21.9043 3.09324
21.9113 2.9503
21.9183 2.75369
21.9253 2.52748
21.9323 2.29127
21.9393 2.03669
21.9463 1.79317
21.9533 1.57214
21.9603 1.3719
21.9672 1.19577
21.9742 1.0443
21.9812 0.918841
21.9882 0.819798
21.9952 0.736289
22.0022 0.669248
22.0092 0.619602
22.0162 0.579311
22.0232 0.548671
22.0302 0.527157
22.0372 0.511557
22.0441 0.501642
22.0511 0.496714
22.0581 0.496898
22.0651 0.501089
22.0721 0.509718
22.0791 0.523084
22.0861 0.542305
22.0931 0.568663
22.1001 0.603395
22.1071 0.64804
22.1141 0.705382
22.1211 0.774199
22.128 0.859994
22.135 0.969766
22.142 1.09274
22.149 1.23913
22.156 1.40809
22.163 1.59495
22.17 1.79807
22.177 1.99924
22.184 2.19446
22.191 2.38025
22.198 2.52833
22.205 2.6328
22.2119 2.69045
22.2189 2.69294
22.2259 2.63867
22.2329 2.53463
22.2399 2.38798
22.2469 2.20539
22.2539 2.0095
22.2609 1.811
22.2679 1.60149
22.2749 1.41341
22.2819 1.24461
22.2888 1.0938
22.2958 0.963541
22.3028 0.854646
22.3098 0.766275
22.3168 0.696025
22.3238 0.636166
22.3308 0.591215
22.3378 0.556711
22.3448 0.529
22.3518 0.507579
22.3588 0.492741
22.3658 0.481901
22.3727 0.47524
22.3797 0.471581
22.3867 0.472145
22.3937 0.476175
22.4007 0.48312
22.4077 0.494214
22.4147 0.510318
22.4217 0.532353
22.4287 0.559862
22.4357 0.594706
22.4427 0.63826
22.4497 0.690487
22.4566 0.756559
22.4636 0.836084
22.4706 0.923543
22.4776 1.026
22.4846 1.13889
22.4916 1.25692
22.4986 1.37899
22.5056 1.49065
22.5126 1.59296
22.5196 1.67513
22.5266 1.72838
22.5336 1.75167
22.5405 1.74209
22.5475 1.70091
22.5545 1.62958
22.5615 1.53728
22.5685 1.42576
22.5755 1.30497
22.5825 1.18742
22.5895 1.07243
22.5965 0.960759
22.6035 0.866962
22.6105 0.782924
22.6174 0.711942
22.6244 0.652591
22.6314 0.60384
22.6384 0.566776
22.6454 0.535889
22.6524 0.510137
22.6594 0.490976
22.6664 0.476635
22.6734 0.465994
22.6804 0.458395
22.6874 0.45374
22.6944 0.451513
22.7013 0.451273
22.7083 0.453442
22.7153 0.458153
22.7223 0.464726
22.7293 0.473667
22.7363 0.485233
22.7433 0.500878
22.7503 0.520374
22.7573 0.544977
22.7643 0.576051
22.7713 0.612637
22.7783 0.655925
22.7852 0.70952
22.7922 0.766871
22.7992 0.830033
22.8062 0.898084
22.8132 0.966935
22.8202 1.03337
22.8272 1.09194
22.8342 1.13947
22.8412 1.17401
22.8482 1.19026
22.8552 1.18731
22.8622 1.16501
22.8691 1.12743
22.8761 1.07604
22.8831 1.01488
22.8901 0.948528
22.8971 0.879172
22.9041 0.815198
22.9111 0.757337
22.9181 0.700744
22.9251 0.655269
22.9321 0.616763
22.9391 0.584642
22.946 0.559152
22.953 0.540251
22.96 0.52662
22.967 0.517705
22.974 0.511256
22.981 0.508246
22.988 0.509191
22.995 0.513052
