[DEFAULT]

version = diffpy.pdfgetx-2.1.1

# input and output specifications
dataformat = twotheta
inputfile = LaB6_0p4mm_011_av10_monitor.xye
backgroundfile = 0p4mm_capillary_018_av17_monitor.xye
outputtype = sq

# PDF calculation setup
mode = xray
wavelength = 0.270793
twothetazero = 0
composition = LaB6
bgscale = 1
rpoly = 1.5
qmaxinst = 23.4501
qmin = 1
qmax = 23
rmin = 0.5
rmax = 50
rstep = 0.01

# End of config --------------------------------------------------------------

#### start data
#S 1
#L Q(Ã…$^{-1}$)  S(a.u.)
1.00066 0.827474
1.00336 0.826273
1.00606 0.825162
1.00875 0.824063
1.01145 0.822937
1.01415 0.821775
1.01684 0.820653
1.01954 0.819596
1.02224 0.818407
1.02494 0.817075
1.02763 0.815685
1.03033 0.814453
1.03303 0.813169
1.03573 0.811906
1.03842 0.810581
1.04112 0.809162
1.04382 0.807751
1.04651 0.806388
1.04921 0.805089
1.05191 0.803717
1.05461 0.802444
1.0573 0.801329
1.06 0.800334
1.0627 0.799282
1.06539 0.798211
1.06809 0.797285
1.07079 0.796388
1.07349 0.79541
1.07618 0.794432
1.07888 0.793473
1.08158 0.792577
1.08427 0.791558
1.08697 0.790496
1.08967 0.789356
1.09237 0.788282
1.09506 0.787345
1.09776 0.786316
1.10046 0.785452
1.10316 0.784617
1.10585 0.78387
1.10855 0.783099
1.11125 0.782442
1.11394 0.781715
1.11664 0.780901
1.11934 0.780052
1.12204 0.779065
1.12473 0.778024
1.12743 0.776968
1.13013 0.77571
1.13282 0.774382
1.13552 0.773068
1.13822 0.771756
1.14092 0.770261
1.14361 0.768668
1.14631 0.767182
1.14901 0.765703
1.1517 0.7644
1.1544 0.76295
1.1571 0.761667
1.1598 0.760442
1.16249 0.75938
1.16519 0.758255
1.16789 0.756998
1.17059 0.755822
1.17328 0.754805
1.17598 0.753793
1.17868 0.75267
1.18137 0.751549
1.18407 0.750534
1.18677 0.749532
1.18947 0.748454
1.19216 0.747306
1.19486 0.746238
1.19756 0.745129
1.20025 0.744032
1.20295 0.743037
1.20565 0.742036
1.20835 0.741145
1.21104 0.740289
1.21374 0.739458
1.21644 0.738529
1.21913 0.737505
1.22183 0.736572
1.22453 0.735649
1.22723 0.734785
1.22992 0.733733
1.23262 0.732621
1.23532 0.731635
1.23802 0.730663
1.24071 0.729619
1.24341 0.728545
1.24611 0.727469
1.2488 0.726358
1.2515 0.725101
1.2542 0.723831
1.2569 0.722546
1.25959 0.721404
1.26229 0.720206
1.26499 0.719089
1.26768 0.717985
1.27038 0.716889
1.27308 0.71588
1.27578 0.714857
1.27847 0.71387
1.28117 0.712806
1.28387 0.711778
1.28656 0.710841
1.28926 0.709825
1.29196 0.708774
1.29466 0.707774
1.29735 0.7068
1.30005 0.705842
1.30275 0.704921
1.30545 0.704055
1.30814 0.70306
1.31084 0.702096
1.31354 0.701034
1.31623 0.700218
1.31893 0.699263
1.32163 0.698266
1.32433 0.697312
1.32702 0.696432
1.32972 0.695577
1.33242 0.694674
1.33511 0.693792
1.33781 0.692733
1.34051 0.691771
1.34321 0.690864
1.3459 0.689883
1.3486 0.688981
1.3513 0.688312
1.35399 0.687752
1.35669 0.687094
1.35939 0.686328
1.36209 0.685636
1.36478 0.685135
1.36748 0.684584
1.37018 0.683988
1.37288 0.683449
1.37557 0.68317
1.37827 0.682755
1.38097 0.682488
1.38366 0.682224
1.38636 0.682076
1.38906 0.682164
1.39176 0.682417
1.39445 0.682653
1.39715 0.683049
1.39985 0.683682
1.40254 0.684619
1.40524 0.685788
1.40794 0.687207
1.41064 0.688915
1.41333 0.691098
1.41603 0.693908
1.41873 0.696994
1.42142 0.70026
1.42412 0.704153
1.42682 0.709624
1.42952 0.716074
1.43221 0.722786
1.43491 0.730999
1.43761 0.741888
1.44031 0.754633
1.443 0.770593
1.4457 0.788484
1.4484 0.809612
1.45109 0.835625
1.45379 0.871491
1.45649 0.910186
1.45919 0.954462
1.46188 1.00996
1.46458 1.08043
1.46728 1.1622
1.46997 1.25543
1.47267 1.36774
1.47537 1.49783
1.47807 1.64928
1.48076 1.83193
1.48346 2.02551
1.48616 2.23172
1.48885 2.48174
1.49155 2.74645
1.49425 2.99154
1.49695 3.22313
1.49964 3.49109
1.50234 3.69888
1.50504 3.85696
1.50774 3.96147
1.51043 3.9994
1.51313 3.96723
1.51583 3.86416
1.51852 3.70747
1.52122 3.51439
1.52392 3.27279
1.52662 2.99512
1.52931 2.72044
1.53201 2.45812
1.53471 2.20949
1.5374 1.97425
1.5401 1.76184
1.5428 1.5697
1.5455 1.40392
1.54819 1.27857
1.55089 1.16156
1.55359 1.06123
1.55628 0.979132
1.55898 0.918112
1.56168 0.866049
1.56438 0.821183
1.56707 0.785802
1.56977 0.75623
1.57247 0.733027
1.57517 0.714303
1.57786 0.698289
1.58056 0.684447
1.58326 0.673231
1.58595 0.664526
1.58865 0.656587
1.59135 0.649332
1.59405 0.643507
1.59674 0.638562
1.59944 0.634189
1.60214 0.630189
1.60483 0.626615
1.60753 0.623228
1.61023 0.620262
1.61293 0.61774
1.61562 0.615111
1.61832 0.612778
1.62102 0.610783
1.62371 0.609056
1.62641 0.607303
1.62911 0.605683
1.63181 0.604246
1.6345 0.602966
1.6372 0.601835
1.6399 0.60077
1.6426 0.599755
1.64529 0.59881
1.64799 0.597933
1.65069 0.597158
1.65338 0.596294
1.65608 0.595474
1.65878 0.594815
1.66148 0.594223
1.66417 0.593436
1.66687 0.592541
1.66957 0.591592
1.67226 0.590816
1.67496 0.589951
1.67766 0.588943
1.68036 0.588043
1.68305 0.587431
1.68575 0.5868
1.68845 0.586023
1.69114 0.585244
1.69384 0.584501
1.69654 0.583697
1.69924 0.582873
1.70193 0.582069
1.70463 0.581251
1.70733 0.580535
1.71003 0.579899
1.71272 0.579367
1.71542 0.578853
1.71812 0.578253
1.72081 0.577834
1.72351 0.577318
1.72621 0.57675
1.72891 0.576175
1.7316 0.575618
1.7343 0.574954
1.737 0.574294
1.73969 0.57377
1.74239 0.573265
1.74509 0.572877
1.74779 0.572464
1.75048 0.572032
1.75318 0.571581
1.75588 0.571113
1.75857 0.570623
1.76127 0.570046
1.76397 0.569463
1.76667 0.568956
1.76936 0.568535
1.77206 0.568061
1.77476 0.567652
1.77746 0.567306
1.78015 0.567021
1.78285 0.566611
1.78555 0.566241
1.78824 0.565899
1.79094 0.56555
1.79364 0.565051
1.79634 0.564523
1.79903 0.56409
1.80173 0.563726
1.80443 0.563355
1.80712 0.562994
1.80982 0.562584
1.81252 0.562174
1.81522 0.561754
1.81791 0.561241
1.82061 0.560779
1.82331 0.560394
1.826 0.559974
1.8287 0.559473
1.8314 0.558929
1.8341 0.558566
1.83679 0.558242
1.83949 0.557955
1.84219 0.557447
1.84489 0.55699
1.84758 0.556576
1.85028 0.556154
1.85298 0.555715
1.85567 0.555326
1.85837 0.554985
1.86107 0.554635
1.86377 0.554301
1.86646 0.554018
1.86916 0.553806
1.87186 0.553575
1.87455 0.553242
1.87725 0.552848
1.87995 0.552406
1.88265 0.551946
1.88534 0.551565
1.88804 0.551274
1.89074 0.550893
1.89343 0.550324
1.89613 0.549876
1.89883 0.549348
1.90153 0.548736
1.90422 0.548122
1.90692 0.547655
1.90962 0.547194
1.91232 0.546689
1.91501 0.546184
1.91771 0.545705
1.92041 0.545359
1.9231 0.545014
1.9258 0.544651
1.9285 0.544267
1.9312 0.543866
1.93389 0.543522
1.93659 0.543234
1.93929 0.543042
1.94198 0.542879
1.94468 0.542722
1.94738 0.542715
1.95008 0.542646
1.95277 0.542598
1.95547 0.542533
1.95817 0.542546
1.96086 0.542615
1.96356 0.542534
1.96626 0.54252
1.96896 0.542543
1.97165 0.542617
1.97435 0.542761
1.97705 0.543053
1.97975 0.543431
1.98244 0.543834
1.98514 0.544281
1.98784 0.54483
1.99053 0.545513
1.99323 0.546285
1.99593 0.547102
1.99863 0.548
2.00132 0.549038
2.00402 0.55024
2.00672 0.551393
2.00941 0.55266
2.01211 0.554142
2.01481 0.556041
2.01751 0.557758
2.0202 0.560004
2.0229 0.562577
2.0256 0.565405
2.02829 0.568855
2.03099 0.572988
2.03369 0.577412
2.03639 0.58268
2.03908 0.589285
2.04178 0.59648
2.04448 0.604351
2.04718 0.613814
2.04987 0.624999
2.05257 0.637924
2.05527 0.652997
2.05796 0.670627
2.06066 0.691156
2.06336 0.715264
2.06606 0.747139
2.06875 0.781406
2.07145 0.82106
2.07415 0.870844
2.07684 0.935411
2.07954 1.00622
2.08224 1.09242
2.08494 1.19837
2.08763 1.32047
2.09033 1.47494
2.09303 1.66073
2.09573 1.86734
2.09842 2.10997
2.10112 2.4123
2.10382 2.7657
2.10651 3.14579
2.10921 3.58044
2.11191 4.09699
2.11461 4.63689
2.1173 5.2031
2.12 5.77179
2.1227 6.37656
2.12539 6.94521
2.12809 7.44326
2.13079 7.81189
2.13349 8.06042
2.13618 8.16982
2.13888 8.11223
2.14158 7.90295
2.14427 7.56616
2.14697 7.09168
2.14967 6.51318
2.15237 5.8988
2.15506 5.27043
2.15776 4.67235
2.16046 4.09957
2.16316 3.55144
2.16585 3.06038
2.16855 2.63289
2.17125 2.29064
2.17394 1.97686
2.17664 1.71476
2.17934 1.49635
2.18204 1.32149
2.18473 1.17619
2.18743 1.06158
2.19013 0.964203
2.19282 0.884074
2.19552 0.823448
2.19822 0.774771
2.20092 0.731033
2.20361 0.696018
2.20631 0.667956
2.20901 0.645147
2.2117 0.625025
2.2144 0.608187
2.2171 0.593996
2.2198 0.581803
2.22249 0.571893
2.22519 0.563184
2.22789 0.555361
2.23059 0.548521
2.23328 0.543176
2.23598 0.538124
2.23868 0.533264
2.24137 0.52912
2.24407 0.525616
2.24677 0.522434
2.24947 0.519622
2.25216 0.51693
2.25486 0.514434
2.25756 0.512186
2.26025 0.510173
2.26295 0.50808
2.26565 0.506253
2.26835 0.50468
2.27104 0.503257
2.27374 0.50198
2.27644 0.500909
2.27913 0.500025
2.28183 0.499251
2.28453 0.498524
2.28723 0.497745
2.28992 0.496987
2.29262 0.496324
2.29532 0.495627
2.29802 0.494765
2.30071 0.493953
2.30341 0.493422
2.30611 0.492645
2.3088 0.49192
2.3115 0.491203
2.3142 0.490608
2.3169 0.489882
2.31959 0.489181
2.32229 0.488603
2.32499 0.488082
2.32768 0.487572
2.33038 0.487062
2.33308 0.486587
2.33578 0.486106
2.33847 0.48559
2.34117 0.485138
2.34387 0.484779
2.34656 0.484393
2.34926 0.483943
2.35196 0.483502
2.35466 0.48314
2.35735 0.482735
2.36005 0.482198
2.36275 0.481605
2.36545 0.481127
2.36814 0.480633
2.37084 0.48026
2.37354 0.479806
2.37623 0.479525
2.37893 0.479342
2.38163 0.479096
2.38433 0.47867
2.38702 0.478234
2.38972 0.477936
2.39242 0.477731
2.39511 0.477456
2.39781 0.477075
2.40051 0.476719
2.40321 0.476443
2.4059 0.476203
2.4086 0.475954
2.4113 0.475784
2.41399 0.475482
2.41669 0.475336
2.41939 0.475082
2.42209 0.474858
2.42478 0.474703
2.42748 0.474501
2.43018 0.474439
2.43288 0.474292
2.43557 0.474108
2.43827 0.473939
2.44097 0.47375
2.44366 0.473731
2.44636 0.473687
2.44906 0.47361
2.45176 0.473489
2.45445 0.47334
2.45715 0.473249
2.45985 0.473181
2.46254 0.473189
2.46524 0.473158
2.46794 0.473183
2.47064 0.473283
2.47333 0.473303
2.47603 0.473391
2.47873 0.4736
2.48142 0.474169
2.48412 0.474725
2.48682 0.475293
2.48952 0.476102
2.49221 0.476963
2.49491 0.478098
2.49761 0.479323
2.50031 0.480761
2.503 0.482325
2.5057 0.484067
2.5084 0.48606
2.51109 0.488299
2.51379 0.490742
2.51649 0.493461
2.51919 0.496601
2.52188 0.500292
2.52458 0.504729
2.52728 0.509422
2.52997 0.514909
2.53267 0.521382
2.53537 0.529412
2.53807 0.537874
2.54076 0.548406
2.54346 0.560439
2.54616 0.576183
2.54885 0.594135
2.55155 0.615728
2.55425 0.639761
2.55695 0.670786
2.55964 0.709049
2.56234 0.753104
2.56504 0.803994
2.56774 0.866547
2.57043 0.942791
2.57313 1.03413
2.57583 1.14104
2.57852 1.26363
2.58122 1.40829
2.58392 1.57701
2.58662 1.77987
2.58931 1.98786
2.59201 2.23051
2.59471 2.49426
2.5974 2.78794
2.6001 3.0542
2.6028 3.34137
2.6055 3.61491
2.60819 3.84839
2.61089 4.033
2.61359 4.1629
2.61628 4.21792
2.61898 4.19741
2.62168 4.10085
2.62438 3.9404
2.62707 3.73106
2.62977 3.46466
2.63247 3.16736
2.63517 2.87312
2.63786 2.57134
2.64056 2.28793
2.64326 2.01585
2.64595 1.78268
2.64865 1.55536
2.65135 1.37488
2.65405 1.22022
2.65674 1.08808
2.65944 0.97258
2.66214 0.882627
2.66483 0.80865
2.66753 0.747065
2.67023 0.697263
2.67293 0.656094
2.67562 0.622166
2.67832 0.596146
2.68102 0.5745
2.68371 0.556085
2.68641 0.540953
2.68911 0.528845
2.69181 0.518853
2.6945 0.509845
2.6972 0.502566
2.6999 0.496157
2.7026 0.490975
2.70529 0.486424
2.70799 0.482411
2.71069 0.478629
2.71338 0.475705
2.71608 0.473054
2.71878 0.470716
2.72148 0.468564
2.72417 0.466797
2.72687 0.465234
2.72957 0.463966
2.73226 0.462719
2.73496 0.461475
2.73766 0.460342
2.74036 0.459462
2.74305 0.45867
2.74575 0.457848
2.74845 0.45711
2.75114 0.456572
2.75384 0.456217
2.75654 0.455857
2.75924 0.455423
2.76193 0.455012
2.76463 0.454567
2.76733 0.454245
2.77003 0.453897
2.77272 0.453628
2.77542 0.453595
2.77812 0.453587
2.78081 0.453625
2.78351 0.453682
2.78621 0.453749
2.78891 0.453658
2.7916 0.453576
2.7943 0.453516
2.797 0.453416
2.79969 0.453224
2.80239 0.453102
2.80509 0.452994
2.80779 0.452735
2.81048 0.452371
2.81318 0.451969
2.81588 0.45158
2.81857 0.451132
2.82127 0.450537
2.82397 0.44997
2.82667 0.449515
2.82936 0.449096
2.83206 0.448698
2.83476 0.448339
2.83746 0.448195
2.84015 0.448052
2.84285 0.44782
2.84555 0.447683
2.84824 0.447666
2.85094 0.447656
2.85364 0.447623
2.85634 0.447563
2.85903 0.447549
2.86173 0.447659
2.86443 0.447757
2.86712 0.447765
2.86982 0.447788
2.87252 0.44789
2.87522 0.448084
2.87791 0.448247
2.88061 0.448396
2.88331 0.448608
2.886 0.44901
2.8887 0.449534
2.8914 0.449803
2.8941 0.450247
2.89679 0.450885
2.89949 0.451493
2.90219 0.452157
2.90489 0.452816
2.90758 0.45373
2.91028 0.454583
2.91298 0.4556
2.91567 0.456732
2.91837 0.458064
2.92107 0.459592
2.92377 0.461443
2.92646 0.463662
2.92916 0.466113
2.93186 0.468866
2.93455 0.471994
2.93725 0.475725
2.93995 0.480112
2.94265 0.485235
2.94534 0.49129
2.94804 0.498346
2.95074 0.507254
2.95343 0.517808
2.95613 0.529169
2.95883 0.543578
2.96153 0.561458
2.96422 0.583061
2.96692 0.60803
2.96962 0.638642
2.97232 0.674099
2.97501 0.718847
2.97771 0.771874
2.98041 0.832791
2.9831 0.904217
2.9858 0.989384
2.9885 1.08899
2.9912 1.20057
2.99389 1.32666
2.99659 1.47061
2.99929 1.62597
3.00198 1.78848
3.00468 1.95727
3.00738 2.12567
3.01008 2.29484
3.01277 2.43507
3.01547 2.55063
3.01817 2.62864
3.02086 2.67104
3.02356 2.66481
3.02626 2.61658
3.02896 2.52656
3.03165 2.40012
3.03435 2.24827
3.03705 2.07878
3.03975 1.90076
3.04244 1.72441
3.04514 1.55299
3.04784 1.3906
3.05053 1.24436
3.05323 1.11509
3.05593 1.00535
3.05863 0.909
3.06132 0.826397
3.06402 0.758983
3.06672 0.703192
3.06941 0.657545
3.07211 0.620209
3.07481 0.590513
3.07751 0.565094
3.0802 0.545529
3.0829 0.529226
3.0856 0.515776
3.08829 0.50479
3.09099 0.495775
3.09369 0.488388
3.09639 0.482128
3.09908 0.476852
3.10178 0.472366
3.10448 0.468547
3.10718 0.465359
3.10987 0.462527
3.11257 0.4601
3.11527 0.458129
3.11796 0.4564
3.12066 0.454757
3.12336 0.453271
3.12606 0.452255
3.12875 0.451281
3.13145 0.450253
3.13415 0.449287
3.13684 0.448533
3.13954 0.447797
3.14224 0.447156
3.14494 0.446725
3.14763 0.446447
3.15033 0.446191
3.15303 0.445918
3.15572 0.445743
3.15842 0.445642
3.16112 0.445551
3.16382 0.445495
3.16651 0.445508
3.16921 0.445546
3.17191 0.445515
3.17461 0.445424
3.1773 0.445421
3.18 0.445523
3.1827 0.445564
3.18539 0.445509
3.18809 0.445496
3.19079 0.445563
3.19349 0.445621
3.19618 0.445675
3.19888 0.445867
3.20158 0.446189
3.20427 0.446461
3.20697 0.446827
3.20967 0.447318
3.21237 0.447791
3.21506 0.448261
3.21776 0.448792
3.22046 0.449354
3.22315 0.449952
3.22585 0.450549
3.22855 0.451167
3.23125 0.451928
3.23394 0.452639
3.23664 0.453325
3.23934 0.454194
3.24204 0.455271
3.24473 0.45637
3.24743 0.457685
3.25013 0.459142
3.25282 0.460764
3.25552 0.462498
3.25822 0.464264
3.26092 0.466248
3.26361 0.468504
3.26631 0.470974
3.26901 0.473642
3.2717 0.47673
3.2744 0.480135
3.2771 0.484242
3.2798 0.48903
3.28249 0.494375
3.28519 0.500392
3.28789 0.507398
3.29058 0.515725
3.29328 0.52509
3.29598 0.535999
3.29868 0.548319
3.30137 0.563237
3.30407 0.580602
3.30677 0.601558
3.30947 0.624769
3.31216 0.653189
3.31486 0.689167
3.31756 0.732383
3.32025 0.780783
3.32295 0.840519
3.32565 0.913655
3.32835 1.00335
3.33104 1.10751
3.33374 1.23397
3.33644 1.37907
3.33913 1.55763
3.34183 1.7717
3.34453 2.01196
3.34723 2.28503
3.34992 2.60085
3.35262 2.96325
3.35532 3.35151
3.35801 3.77319
3.36071 4.21481
3.36341 4.65679
3.36611 5.07876
3.3688 5.47314
3.3715 5.7962
3.3742 6.04182
3.3769 6.16762
3.37959 6.18569
3.38229 6.0881
3.38499 5.87145
3.38768 5.56841
3.39038 5.18622
3.39308 4.75499
3.39578 4.29037
3.39847 3.83293
3.40117 3.38643
3.40387 2.95573
3.40656 2.57428
3.40926 2.23863
3.41196 1.94194
3.41466 1.6849
3.41735 1.46847
3.42005 1.28932
3.42275 1.14095
3.42544 1.02014
3.42814 0.917959
3.43084 0.83698
3.43354 0.772166
3.43623 0.719825
3.43893 0.676719
3.44163 0.640285
3.44433 0.611887
3.44702 0.588558
3.44972 0.569271
3.45242 0.552913
3.45511 0.539243
3.45781 0.527924
3.46051 0.518428
3.46321 0.510349
3.4659 0.503302
3.4686 0.497334
3.4713 0.492438
3.47399 0.488064
3.47669 0.484296
3.47939 0.480818
3.48209 0.478009
3.48478 0.475507
3.48748 0.473301
3.49018 0.471043
3.49288 0.469383
3.49557 0.467918
3.49827 0.466526
3.50097 0.465239
3.50366 0.464221
3.50636 0.463425
3.50906 0.462651
3.51176 0.461817
3.51445 0.461158
3.51715 0.460582
3.51985 0.460001
3.52254 0.459503
3.52524 0.459112
3.52794 0.458746
3.53064 0.458396
3.53333 0.458206
3.53603 0.458128
3.53873 0.45807
3.54142 0.458107
3.54412 0.458261
3.54682 0.458491
3.54952 0.458742
3.55221 0.458951
3.55491 0.459288
3.55761 0.459565
3.56031 0.459891
3.563 0.460164
3.5657 0.46058
3.5684 0.460939
3.57109 0.461351
3.57379 0.461829
3.57649 0.462433
3.57919 0.463344
3.58188 0.464547
3.58458 0.465924
3.58728 0.46737
3.58997 0.468881
3.59267 0.470613
3.59537 0.472483
3.59807 0.47438
3.60076 0.476546
3.60346 0.479237
3.60616 0.482517
3.60885 0.486048
3.61155 0.489977
3.61425 0.495019
3.61695 0.500928
3.61964 0.50745
3.62234 0.51504
3.62504 0.524034
3.62774 0.535042
3.63043 0.548168
3.63313 0.562996
3.63583 0.580572
3.63852 0.602474
3.64122 0.629069
3.64392 0.660153
3.64662 0.696681
3.64931 0.740669
3.65201 0.79537
3.65471 0.862199
3.6574 0.937711
3.6601 1.02684
3.6628 1.13368
3.6655 1.2635
3.66819 1.40978
3.67089 1.57593
3.67359 1.75967
3.67628 1.9718
3.67898 2.20718
3.68168 2.44382
3.68438 2.69257
3.68707 2.93329
3.68977 3.16127
3.69247 3.36312
3.69517 3.52051
3.69786 3.6278
3.70056 3.67436
3.70326 3.65611
3.70595 3.57547
3.70865 3.43661
3.71135 3.24893
3.71405 3.02152
3.71674 2.7695
3.71944 2.50993
3.72214 2.25956
3.72483 2.01273
3.72753 1.78236
3.73023 1.5706
3.73293 1.39253
3.73562 1.23824
3.73832 1.10724
3.74102 0.988254
3.74371 0.896102
3.74641 0.81957
3.74911 0.7576
3.75181 0.704525
3.7545 0.661793
3.7572 0.627904
3.7599 0.60082
3.7626 0.57827
3.76529 0.55941
3.76799 0.544207
3.77069 0.531835
3.77338 0.521761
3.77608 0.513089
3.77878 0.505828
3.78148 0.499874
3.78417 0.495005
3.78687 0.490586
3.78957 0.486868
3.79226 0.483812
3.79496 0.481244
3.79766 0.478829
3.80036 0.476864
3.80305 0.475064
3.80575 0.473636
3.80845 0.472407
3.81114 0.47131
3.81384 0.470337
3.81654 0.469506
3.81924 0.468671
3.82193 0.467907
3.82463 0.467207
3.82733 0.466611
3.83003 0.46613
3.83272 0.465651
3.83542 0.46527
3.83812 0.464951
3.84081 0.464549
3.84351 0.464042
3.84621 0.463697
3.84891 0.463425
3.8516 0.463197
3.8543 0.46296
3.857 0.463029
3.85969 0.462968
3.86239 0.463046
3.86509 0.462923
3.86779 0.462811
3.87048 0.462705
3.87318 0.462663
3.87588 0.462554
3.87857 0.462468
3.88127 0.462514
3.88397 0.462522
3.88667 0.462462
3.88936 0.462476
3.89206 0.462506
3.89476 0.462449
3.89746 0.46236
3.90015 0.462247
3.90285 0.462245
3.90555 0.462566
3.90824 0.462742
3.91094 0.463071
3.91364 0.463592
3.91634 0.463961
3.91903 0.464208
3.92173 0.464472
3.92443 0.464762
3.92712 0.465065
3.92982 0.465354
3.93252 0.465637
3.93522 0.465915
3.93791 0.466152
3.94061 0.466292
3.94331 0.466456
3.946 0.466666
3.9487 0.466968
3.9514 0.467276
3.9541 0.467499
3.95679 0.467863
3.95949 0.468401
3.96219 0.468894
3.96489 0.469145
3.96758 0.469315
3.97028 0.469495
3.97298 0.469559
3.97567 0.469597
3.97837 0.469534
3.98107 0.469432
3.98377 0.469146
3.98646 0.468984
3.98916 0.468675
3.99186 0.468355
3.99455 0.468052
3.99725 0.467815
3.99995 0.467441
4.00265 0.467227
4.00534 0.46716
4.00804 0.467142
4.01074 0.467162
4.01343 0.467154
4.01613 0.467201
4.01883 0.467345
4.02153 0.467376
4.02422 0.467292
4.02692 0.467263
4.02962 0.467417
4.03232 0.467479
4.03501 0.467601
4.03771 0.467547
4.04041 0.467865
4.0431 0.46828
4.0458 0.468589
4.0485 0.468801
4.0512 0.469125
4.05389 0.469358
4.05659 0.46942
4.05929 0.469489
4.06198 0.469798
4.06468 0.470054
4.06738 0.470169
4.07008 0.470373
4.07277 0.470599
4.07547 0.470771
4.07817 0.470887
4.08086 0.470946
4.08356 0.471257
4.08626 0.471548
4.08896 0.471711
4.09165 0.472047
4.09435 0.472338
4.09705 0.472636
4.09975 0.472694
4.10244 0.472913
4.10514 0.473386
4.10784 0.473664
4.11053 0.474076
4.11323 0.474584
4.11593 0.475089
4.11863 0.475456
4.12132 0.475812
4.12402 0.476136
4.12672 0.476485
4.12941 0.476833
4.13211 0.477107
4.13481 0.477363
4.13751 0.477719
4.1402 0.478241
4.1429 0.478855
4.1456 0.479397
4.14829 0.479936
4.15099 0.480514
4.15369 0.481177
4.15639 0.481885
4.15908 0.482674
4.16178 0.483846
4.16448 0.48495
4.16718 0.485882
4.16987 0.487013
4.17257 0.488358
4.17527 0.489816
4.17796 0.491222
4.18066 0.492816
4.18336 0.494748
4.18606 0.496908
4.18875 0.499531
4.19145 0.502579
4.19415 0.50595
4.19684 0.509916
4.19954 0.514713
4.20224 0.52018
4.20494 0.526419
4.20763 0.534138
4.21033 0.543679
4.21303 0.555155
4.21572 0.567923
4.21842 0.583433
4.22112 0.601607
4.22382 0.626098
4.22651 0.653357
4.22921 0.685972
4.23191 0.723431
4.23461 0.771455
4.2373 0.828018
4.24 0.891858
4.2427 0.961863
4.24539 1.04362
4.24809 1.13915
4.25079 1.24343
4.25349 1.34971
4.25618 1.45732
4.25888 1.56893
4.26158 1.68001
4.26427 1.77717
4.26697 1.8528
4.26967 1.9082
4.27237 1.93686
4.27506 1.9385
4.27776 1.91117
4.28046 1.85605
4.28315 1.78014
4.28585 1.67522
4.28855 1.56318
4.29125 1.45114
4.29394 1.3399
4.29664 1.22256
4.29934 1.11397
4.30204 1.01895
4.30473 0.937
4.30743 0.865206
4.31013 0.799528
4.31282 0.744613
4.31552 0.70113
4.31822 0.66581
4.32092 0.635218
4.32361 0.609222
4.32631 0.589456
4.32901 0.573915
4.3317 0.561155
4.3344 0.55034
4.3371 0.541493
4.3398 0.534613
4.34249 0.529187
4.34519 0.524729
4.34789 0.520656
4.35058 0.517558
4.35328 0.515248
4.35598 0.513388
4.35868 0.511609
4.36137 0.510413
4.36407 0.509399
4.36677 0.508525
4.36947 0.507928
4.37216 0.507589
4.37486 0.507255
4.37756 0.507004
4.38025 0.506989
4.38295 0.507141
4.38565 0.507366
4.38835 0.507595
4.39104 0.507938
4.39374 0.508552
4.39644 0.509165
4.39913 0.509947
4.40183 0.510961
4.40453 0.512163
4.40723 0.513419
4.40992 0.514634
4.41262 0.516086
4.41532 0.517639
4.41801 0.519151
4.42071 0.521166
4.42341 0.523196
4.42611 0.525617
4.4288 0.528382
4.4315 0.531701
4.4342 0.53555
4.4369 0.539913
4.43959 0.544612
4.44229 0.550028
4.44499 0.556623
4.44768 0.564051
4.45038 0.572193
4.45308 0.581861
4.45578 0.593768
4.45847 0.607992
4.46117 0.624157
4.46387 0.642736
4.46656 0.664465
4.46926 0.691859
4.47196 0.726214
4.47466 0.763639
4.47735 0.809895
4.48005 0.865672
4.48275 0.937914
4.48544 1.02044
4.48814 1.11848
4.49084 1.22965
4.49354 1.37571
4.49623 1.54712
4.49893 1.73796
4.50163 1.95323
4.50433 2.20801
4.50702 2.50208
4.50972 2.82115
4.51242 3.15472
4.51511 3.49767
4.51781 3.85133
4.52051 4.20436
4.52321 4.51705
4.5259 4.77003
4.5286 4.95032
4.5313 5.05827
4.53399 5.07866
4.53669 5.00068
4.53939 4.83849
4.54209 4.5849
4.54478 4.26667
4.54748 3.91379
4.55018 3.55737
4.55287 3.20233
4.55557 2.83339
4.55827 2.48559
4.56097 2.18894
4.56366 1.92908
4.56636 1.69162
4.56906 1.48427
4.57176 1.31389
4.57445 1.17439
4.57715 1.05973
4.57985 0.964381
4.58254 0.881903
4.58524 0.81904
4.58794 0.769499
4.59064 0.728876
4.59333 0.692814
4.59603 0.66581
4.59873 0.643565
4.60142 0.62645
4.60412 0.611468
4.60682 0.599041
4.60952 0.588722
4.61221 0.580767
4.61491 0.573622
4.61761 0.56712
4.6203 0.561767
4.623 0.557375
4.6257 0.553754
4.6284 0.55046
4.63109 0.547575
4.63379 0.545208
4.63649 0.543388
4.63919 0.542025
4.64188 0.540813
4.64458 0.539879
4.64728 0.539323
4.64997 0.53908
4.65267 0.538985
4.65537 0.539032
4.65807 0.539282
4.66076 0.539676
4.66346 0.540483
4.66616 0.541556
4.66885 0.54277
4.67155 0.544097
4.67425 0.545715
4.67695 0.547603
4.67964 0.549964
4.68234 0.552558
4.68504 0.555716
4.68773 0.559533
4.69043 0.564163
4.69313 0.569433
4.69583 0.575575
4.69852 0.582689
4.70122 0.591339
4.70392 0.601889
4.70662 0.613655
4.70931 0.62727
4.71201 0.643856
4.71471 0.664379
4.7174 0.68855
4.7201 0.716819
4.7228 0.751228
4.7255 0.791767
4.72819 0.845935
4.73089 0.907826
4.73359 0.979803
4.73628 1.06338
4.73898 1.17666
4.74168 1.30244
4.74438 1.4454
4.74707 1.60744
4.74977 1.80265
4.75247 2.0245
4.75516 2.26457
4.75786 2.51185
4.76056 2.76766
4.76326 3.04189
4.76595 3.30898
4.76865 3.53265
4.77135 3.71418
4.77405 3.85248
4.77674 3.9333
4.77944 3.94001
4.78214 3.87663
4.78483 3.74699
4.78753 3.55601
4.79023 3.30804
4.79293 3.05115
4.79562 2.78886
4.79832 2.51931
4.80102 2.23001
4.80371 1.98189
4.80641 1.7624
4.80911 1.57025
4.81181 1.39392
4.8145 1.24011
4.8172 1.11531
4.8199 1.0157
4.82259 0.931702
4.82529 0.858173
4.82799 0.799227
4.83069 0.754918
4.83338 0.718458
4.83608 0.68813
4.83878 0.662507
4.84148 0.642781
4.84417 0.627149
4.84687 0.614761
4.84957 0.603409
4.85226 0.594427
4.85496 0.587299
4.85766 0.581504
4.86036 0.576041
4.86305 0.571375
4.86575 0.56747
4.86845 0.564102
4.87114 0.561446
4.87384 0.558923
4.87654 0.55667
4.87924 0.554957
4.88193 0.553658
4.88463 0.552458
4.88733 0.551492
4.89003 0.550854
4.89272 0.550496
4.89542 0.550421
4.89812 0.550481
4.90081 0.550695
4.90351 0.551149
4.90621 0.551855
4.90891 0.552832
4.9116 0.553841
4.9143 0.555173
4.917 0.55659
4.91969 0.558602
4.92239 0.561139
4.92509 0.564475
4.92779 0.56823
4.93048 0.572331
4.93318 0.577247
4.93588 0.58335
4.93857 0.590218
4.94127 0.598102
4.94397 0.607588
4.94667 0.619975
4.94936 0.634644
4.95206 0.651608
4.95476 0.671743
4.95746 0.696929
4.96015 0.728736
4.96285 0.766107
4.96555 0.808744
4.96824 0.859298
4.97094 0.925284
4.97364 1.00476
4.97634 1.08961
4.97903 1.18881
4.98173 1.30839
4.98443 1.45056
4.98712 1.59937
4.98982 1.76076
4.99252 1.92541
4.99522 2.11173
4.99791 2.28978
5.00061 2.44795
5.00331 2.57928
5.006 2.68825
5.0087 2.76142
5.0114 2.78732
5.0141 2.76648
5.01679 2.70039
5.01949 2.58971
5.02219 2.44376
5.02489 2.28115
5.02758 2.11344
5.03028 1.93392
5.03298 1.74268
5.03567 1.57012
5.03837 1.4216
5.04107 1.2851
5.04377 1.15749
5.04646 1.04919
5.04916 0.95987
5.05186 0.888207
5.05455 0.827931
5.05725 0.773665
5.05995 0.731418
5.06265 0.699161
5.06534 0.672581
5.06804 0.64958
5.07074 0.631047
5.07343 0.616608
5.07613 0.605008
5.07883 0.59546
5.08153 0.587216
5.08422 0.580256
5.08692 0.574768
5.08962 0.570279
5.09232 0.56649
5.09501 0.563205
5.09771 0.560441
5.10041 0.558109
5.1031 0.5562
5.1058 0.554245
5.1085 0.552631
5.1112 0.551153
5.11389 0.55014
5.11659 0.549004
5.11929 0.547884
5.12198 0.547129
5.12468 0.546768
5.12738 0.546404
5.13008 0.54606
5.13277 0.545873
5.13547 0.545927
5.13817 0.546045
5.14086 0.546207
5.14356 0.546554
5.14626 0.547071
5.14896 0.547663
5.15165 0.548264
5.15435 0.548858
5.15705 0.549612
5.15975 0.55063
5.16244 0.551768
5.16514 0.553246
5.16784 0.555133
5.17053 0.557425
5.17323 0.559895
5.17593 0.56302
5.17863 0.567188
5.18132 0.572078
5.18402 0.577527
5.18672 0.584284
5.18941 0.592819
5.19211 0.602719
5.19481 0.61447
5.19751 0.627783
5.2002 0.643993
5.2029 0.663841
5.2056 0.685625
5.20829 0.708658
5.21099 0.735052
5.21369 0.765005
5.21639 0.795452
5.21908 0.824668
5.22178 0.852935
5.22448 0.879505
5.22718 0.902458
5.22987 0.919192
5.23257 0.928275
5.23527 0.929592
5.23796 0.922587
5.24066 0.908497
5.24336 0.889145
5.24606 0.863824
5.24875 0.83382
5.25145 0.80176
5.25415 0.770592
5.25684 0.741034
5.25954 0.714034
5.26224 0.687165
5.26494 0.663614
5.26763 0.644434
5.27033 0.628084
5.27303 0.613518
5.27572 0.601354
5.27842 0.591741
5.28112 0.584003
5.28382 0.577813
5.28651 0.572734
5.28921 0.568433
5.29191 0.565135
5.29461 0.562643
5.2973 0.560693
5.3 0.558886
5.3027 0.557554
5.30539 0.556617
5.30809 0.555922
5.31079 0.55517
5.31349 0.554827
5.31618 0.554586
5.31888 0.554581
5.32158 0.554406
5.32427 0.554272
5.32697 0.554429
5.32967 0.554661
5.33237 0.555026
5.33506 0.555554
5.33776 0.556271
5.34046 0.557234
5.34315 0.558254
5.34585 0.559403
5.34855 0.56077
5.35125 0.562091
5.35394 0.56345
5.35664 0.565166
5.35934 0.567288
5.36204 0.569341
5.36473 0.571865
5.36743 0.574717
5.37013 0.578267
5.37282 0.58234
5.37552 0.58748
5.37822 0.593189
5.38092 0.599957
5.38361 0.60862
5.38631 0.618354
5.38901 0.629792
5.3917 0.643716
5.3944 0.661011
5.3971 0.681535
5.3998 0.706188
5.40249 0.734879
5.40519 0.770287
5.40789 0.814783
5.41058 0.866264
5.41328 0.923514
5.41598 0.992243
5.41868 1.07534
5.42137 1.16635
5.42407 1.26481
5.42677 1.37315
5.42947 1.48892
5.43216 1.60887
5.43486 1.72669
5.43756 1.8288
5.44025 1.91629
5.44295 1.99064
5.44565 2.0346
5.44835 2.04694
5.45104 2.02855
5.45374 1.97856
5.45644 1.90422
5.45913 1.80921
5.46183 1.70276
5.46453 1.58713
5.46723 1.46234
5.46992 1.34126
5.47262 1.23431
5.47532 1.13592
5.47801 1.04293
5.48071 0.961639
5.48341 0.893768
5.48611 0.83671
5.4888 0.789168
5.4915 0.748806
5.4942 0.714666
5.4969 0.688818
5.49959 0.668428
5.50229 0.65093
5.50499 0.636235
5.50768 0.625649
5.51038 0.61705
5.51308 0.61002
5.51578 0.604006
5.51847 0.599427
5.52117 0.59605
5.52387 0.593355
5.52656 0.591217
5.52926 0.58972
5.53196 0.588764
5.53466 0.588073
5.53735 0.587761
5.54005 0.587826
5.54275 0.588104
5.54544 0.588551
5.54814 0.589311
5.55084 0.590464
5.55354 0.591898
5.55623 0.593774
5.55893 0.596114
5.56163 0.598987
5.56433 0.602424
5.56702 0.606257
5.56972 0.611028
5.57242 0.616605
5.57511 0.623174
5.57781 0.631482
5.58051 0.641008
5.58321 0.651654
5.5859 0.665079
5.5886 0.681936
5.5913 0.70078
5.59399 0.723649
5.59669 0.75154
5.59939 0.786084
5.60209 0.827637
5.60478 0.877245
5.60748 0.935244
5.61018 1.00758
5.61287 1.09725
5.61557 1.1993
5.61827 1.31672
5.62097 1.4598
5.62366 1.63035
5.62636 1.81614
5.62906 2.02316
5.63176 2.2518
5.63445 2.49739
5.63715 2.75719
5.63985 3.00711
5.64254 3.23086
5.64524 3.43937
5.64794 3.61067
5.65064 3.71559
5.65333 3.75831
5.65603 3.73627
5.65873 3.64945
5.66142 3.50455
5.66412 3.31021
5.66682 3.089
5.66952 2.83641
5.67221 2.56743
5.67491 2.31127
5.67761 2.07698
5.6803 1.85381
5.683 1.6446
5.6857 1.46727
5.6884 1.31573
5.69109 1.18772
5.69379 1.08059
5.69649 0.988033
5.69919 0.91176
5.70188 0.854533
5.70458 0.807047
5.70728 0.765009
5.70997 0.733325
5.71267 0.708593
5.71537 0.687859
5.71807 0.670801
5.72076 0.657043
5.72346 0.645453
5.72616 0.636095
5.72885 0.628016
5.73155 0.621164
5.73425 0.615342
5.73695 0.61031
5.73964 0.606025
5.74234 0.602265
5.74504 0.599036
5.74773 0.596368
5.75043 0.594137
5.75313 0.592296
5.75583 0.590591
5.75852 0.589131
5.76122 0.587829
5.76392 0.58669
5.76662 0.585569
5.76931 0.584461
5.77201 0.583528
5.77471 0.58285
5.7774 0.582419
5.7801 0.582043
5.7828 0.581761
5.7855 0.581457
5.78819 0.581257
5.79089 0.580931
5.79359 0.58069
5.79628 0.580398
5.79898 0.580202
5.80168 0.579901
5.80438 0.57942
5.80707 0.579066
5.80977 0.578971
5.81247 0.578918
5.81516 0.578862
5.81786 0.578902
5.82056 0.578919
5.82326 0.578876
5.82595 0.578835
5.82865 0.578734
5.83135 0.578561
5.83405 0.578421
5.83674 0.578326
5.83944 0.578195
5.84214 0.57797
5.84483 0.577824
5.84753 0.577592
5.85023 0.577375
5.85293 0.577348
5.85562 0.577596
5.85832 0.577853
5.86102 0.57815
5.86371 0.578494
5.86641 0.57881
5.86911 0.57895
5.87181 0.578962
5.8745 0.579028
5.8772 0.579089
5.8799 0.579068
5.88259 0.579078
5.88529 0.57923
5.88799 0.579448
5.89069 0.579545
5.89338 0.579616
5.89608 0.579807
5.89878 0.579984
5.90148 0.580252
5.90417 0.580467
5.90687 0.580716
5.90957 0.580855
5.91226 0.580829
5.91496 0.580905
5.91766 0.581131
5.92036 0.581275
5.92305 0.581329
5.92575 0.581345
5.92845 0.581526
5.93114 0.58178
5.93384 0.582172
5.93654 0.582657
5.93924 0.583238
5.94193 0.583825
5.94463 0.584285
5.94733 0.584703
5.95002 0.58526
5.95272 0.586029
5.95542 0.586867
5.95812 0.587657
5.96081 0.588665
5.96351 0.589859
5.96621 0.591256
5.96891 0.592898
5.9716 0.594989
5.9743 0.59712
5.977 0.599675
5.97969 0.602702
5.98239 0.606162
5.98509 0.61069
5.98779 0.615553
5.99048 0.621693
5.99318 0.629187
5.99588 0.638297
5.99857 0.649034
6.00127 0.662548
6.00397 0.67813
6.00667 0.696763
6.00936 0.719388
6.01206 0.745237
6.01476 0.774948
6.01745 0.810178
6.02015 0.849081
6.02285 0.889309
6.02555 0.933016
6.02824 0.9794
6.03094 1.02242
6.03364 1.0627
6.03634 1.09773
6.03903 1.12504
6.04173 1.14114
6.04443 1.14689
6.04712 1.14092
6.04982 1.12293
6.05252 1.09397
6.05522 1.05878
6.05791 1.01831
6.06061 0.972946
6.06331 0.927822
6.066 0.883617
6.0687 0.841138
6.0714 0.803676
6.0741 0.770452
6.07679 0.740058
6.07949 0.714063
6.08219 0.693045
6.08488 0.675321
6.08758 0.660543
6.09028 0.648794
6.09298 0.639191
6.09567 0.631914
6.09837 0.626441
6.10107 0.621948
6.10377 0.618301
6.10646 0.615905
6.10916 0.614087
6.11186 0.612766
6.11455 0.611825
6.11725 0.611315
6.11995 0.611006
6.12265 0.611125
6.12534 0.611851
6.12804 0.613005
6.13074 0.614279
6.13343 0.616037
6.13613 0.618343
6.13883 0.621062
6.14153 0.624158
6.14422 0.627675
6.14692 0.631811
6.14962 0.636569
6.15231 0.642003
6.15501 0.648398
6.15771 0.656194
6.16041 0.665748
6.1631 0.676773
6.1658 0.689375
6.1685 0.705145
6.1712 0.724409
6.17389 0.747422
6.17659 0.775517
6.17929 0.809251
6.18198 0.849136
6.18468 0.900661
6.18738 0.962922
6.19008 1.03289
6.19277 1.12075
6.19547 1.22837
6.19817 1.34769
6.20086 1.48784
6.20356 1.65048
6.20626 1.8277
6.20896 2.02362
6.21165 2.23042
6.21435 2.43622
6.21705 2.64013
6.21974 2.83219
6.22244 2.99314
6.22514 3.11489
6.22784 3.19281
6.23053 3.21685
6.23323 3.18453
6.23593 3.09929
6.23863 2.96796
6.24132 2.80263
6.24402 2.6008
6.24672 2.39219
6.24941 2.18404
6.25211 1.97108
6.25481 1.76987
6.25751 1.59392
6.2602 1.43153
6.2629 1.29304
6.2656 1.17779
6.26829 1.07423
6.27099 0.990519
6.27369 0.924488
6.27639 0.868566
6.27908 0.82201
6.28178 0.785521
6.28448 0.756099
6.28718 0.732401
6.28987 0.713416
6.29257 0.697738
6.29527 0.685094
6.29796 0.675392
6.30066 0.667635
6.30336 0.66102
6.30606 0.6559
6.30875 0.652054
6.31145 0.649225
6.31415 0.647115
6.31684 0.645696
6.31954 0.645022
6.32224 0.645125
6.32494 0.645599
6.32763 0.646968
6.33033 0.649543
6.33303 0.652905
6.33572 0.657525
6.33842 0.66324
6.34112 0.669997
6.34382 0.678573
6.34651 0.688306
6.34921 0.70058
6.35191 0.716146
6.35461 0.734466
6.3573 0.755883
6.36 0.783862
6.3627 0.818491
6.36539 0.858561
6.36809 0.907715
6.37079 0.968224
6.37349 1.03991
6.37618 1.12619
6.37888 1.22661
6.38158 1.33928
6.38427 1.47005
6.38697 1.62477
6.38967 1.77961
6.39237 1.94857
6.39506 2.1274
6.39776 2.29843
6.40046 2.44892
6.40315 2.58456
6.40585 2.68548
6.40855 2.74669
6.41125 2.76382
6.41394 2.73665
6.41664 2.66495
6.41934 2.55043
6.42204 2.41029
6.42473 2.2535
6.42743 2.07872
6.43013 1.90111
6.43282 1.72935
6.43552 1.56629
6.43822 1.41983
6.44092 1.29019
6.44361 1.17348
6.44631 1.07227
6.44901 0.992577
6.4517 0.924084
6.4544 0.866472
6.4571 0.819851
6.4598 0.783307
6.46249 0.753123
6.46519 0.729552
6.46789 0.709364
6.47058 0.693688
6.47328 0.682025
6.47598 0.672167
6.47868 0.663633
6.48137 0.657158
6.48407 0.65199
6.48677 0.647735
6.48947 0.644272
6.49216 0.641324
6.49486 0.639124
6.49756 0.637622
6.50025 0.636508
6.50295 0.635845
6.50565 0.635632
6.50835 0.635852
6.51104 0.636507
6.51374 0.637593
6.51644 0.639448
6.51913 0.641958
6.52183 0.644994
6.52453 0.64896
6.52723 0.654518
6.52992 0.660943
6.53262 0.668992
6.53532 0.679439
6.53801 0.692124
6.54071 0.706789
6.54341 0.725565
6.54611 0.747349
6.5488 0.773883
6.5515 0.806929
6.5542 0.843913
6.5569 0.885937
6.55959 0.937377
6.56229 0.994323
6.56499 1.05415
6.56768 1.12037
6.57038 1.18782
6.57308 1.2525
6.57578 1.31346
6.57847 1.36654
6.58117 1.40695
6.58387 1.43262
6.58656 1.4426
6.58926 1.4349
6.59196 1.4097
6.59466 1.36849
6.59735 1.3161
6.60005 1.25524
6.60275 1.18759
6.60544 1.12076
6.60814 1.05327
6.61084 0.987894
6.61354 0.931774
6.61623 0.881115
6.61893 0.834468
6.62163 0.796143
6.62433 0.764408
6.62702 0.73712
6.62972 0.715208
6.63242 0.696753
6.63511 0.681896
6.63781 0.670254
6.64051 0.661012
6.64321 0.653463
6.6459 0.647495
6.6486 0.642902
6.6513 0.639358
6.65399 0.636768
6.65669 0.63496
6.65939 0.633853
6.66209 0.633209
6.66478 0.632869
6.66748 0.632948
6.67018 0.633501
6.67287 0.634297
6.67557 0.635362
6.67827 0.636707
6.68097 0.638486
6.68366 0.640797
6.68636 0.643955
6.68906 0.647919
6.69176 0.65293
6.69445 0.658789
6.69715 0.665873
6.69985 0.675125
6.70254 0.686282
6.70524 0.699471
6.70794 0.716134
6.71064 0.736164
6.71333 0.760292
6.71603 0.790215
6.71873 0.825427
6.72142 0.866253
6.72412 0.916525
6.72682 0.975749
6.72952 1.04106
6.73221 1.11652
6.73491 1.20265
6.73761 1.29388
6.7403 1.38745
6.743 1.48428
6.7457 1.57386
6.7484 1.65618
6.75109 1.72595
6.75379 1.77313
6.75649 1.79774
6.75919 1.79668
6.76188 1.77186
6.76458 1.72388
6.76728 1.65438
6.76997 1.57249
6.77267 1.47922
6.77537 1.38196
6.77807 1.28757
6.78076 1.19587
6.78346 1.10784
6.78616 1.03088
6.78885 0.964141
6.79155 0.905338
6.79425 0.855297
6.79695 0.81378
6.79964 0.780057
6.80234 0.753004
6.80504 0.731251
6.80773 0.712871
6.81043 0.698921
6.81313 0.688279
6.81583 0.679681
6.81852 0.67281
6.82122 0.667895
6.82392 0.664093
6.82662 0.661384
6.82931 0.659678
6.83201 0.658773
6.83471 0.658794
6.8374 0.659675
6.8401 0.661418
6.8428 0.663882
6.8455 0.66692
6.84819 0.671338
6.85089 0.676799
6.85359 0.683395
6.85628 0.691633
6.85898 0.701423
6.86168 0.713183
6.86438 0.728041
6.86707 0.746118
6.86977 0.767758
6.87247 0.794881
6.87516 0.828542
6.87786 0.868734
6.88056 0.917278
6.88326 0.975991
6.88595 1.0459
6.88865 1.13343
6.89135 1.23505
6.89405 1.34798
6.89674 1.48354
6.89944 1.64412
6.90214 1.81075
6.90483 1.99483
6.90753 2.18851
6.91023 2.37726
6.91293 2.56055
6.91562 2.72029
6.91832 2.84762
6.92102 2.93775
6.92371 2.98159
6.92641 2.97555
6.92911 2.91785
6.93181 2.81365
6.9345 2.67386
6.9372 2.50542
6.9399 2.31947
6.94259 2.12894
6.94529 1.93476
6.94799 1.74568
6.95069 1.57967
6.95338 1.43008
6.95608 1.29249
6.95878 1.17506
6.96148 1.07965
6.96417 0.998206
6.96687 0.931651
6.96957 0.875645
6.97226 0.830103
6.97496 0.795974
6.97766 0.768414
6.98036 0.744389
6.98305 0.726375
6.98575 0.712119
6.98845 0.700276
6.99114 0.690569
6.99384 0.683153
6.99654 0.677529
6.99924 0.673276
7.00193 0.669946
7.00463 0.667507
7.00733 0.66618
7.01002 0.665779
7.01272 0.666087
7.01542 0.667111
7.01812 0.669005
7.02081 0.671784
7.02351 0.675504
7.02621 0.680802
7.02891 0.687879
7.0316 0.696412
7.0343 0.706939
7.037 0.720494
7.03969 0.737317
7.04239 0.757372
7.04509 0.782691
7.04779 0.811993
7.05048 0.849299
7.05318 0.894109
7.05588 0.944469
7.05857 1.00191
7.06127 1.07425
7.06397 1.15086
7.06667 1.23142
7.06936 1.31993
7.07206 1.41013
7.07476 1.49694
7.07745 1.57727
7.08015 1.64429
7.08285 1.69394
7.08555 1.72427
7.08824 1.73202
7.09094 1.71553
7.09364 1.67575
7.09634 1.61701
7.09903 1.5445
7.10173 1.46025
7.10443 1.37022
7.10712 1.27934
7.10982 1.18849
7.11252 1.10494
7.11522 1.0325
7.11791 0.964312
7.12061 0.90488
7.12331 0.856318
7.126 0.815425
7.1287 0.7816
7.1314 0.753606
7.1341 0.730674
7.13679 0.712388
7.13949 0.698003
7.14219 0.685523
7.14488 0.67575
7.14758 0.668327
7.15028 0.662135
7.15298 0.6568
7.15567 0.652316
7.15837 0.648567
7.16107 0.645553
7.16377 0.643084
7.16646 0.641087
7.16916 0.639576
7.17186 0.638361
7.17455 0.63731
7.17725 0.636292
7.17995 0.635671
7.18265 0.63502
7.18534 0.634388
7.18804 0.633702
7.19074 0.633382
7.19343 0.633074
7.19613 0.632643
7.19883 0.632007
7.20153 0.631469
7.20422 0.630959
7.20692 0.630613
7.20962 0.630299
7.21231 0.630076
7.21501 0.62973
7.21771 0.629282
7.22041 0.628955
7.2231 0.628764
7.2258 0.628542
7.2285 0.628233
7.2312 0.628005
7.23389 0.627812
7.23659 0.627702
7.23929 0.627712
7.24198 0.627726
7.24468 0.627575
7.24738 0.627314
7.25008 0.627159
7.25277 0.626968
7.25547 0.626895
7.25817 0.626903
7.26086 0.627004
7.26356 0.627425
7.26626 0.627839
7.26896 0.628281
7.27165 0.628934
7.27435 0.629677
7.27705 0.630157
7.27974 0.630009
7.28244 0.630282
7.28514 0.630489
7.28784 0.630717
7.29053 0.630969
7.29323 0.631126
7.29593 0.631157
7.29863 0.631387
7.30132 0.631694
7.30402 0.631986
7.30672 0.632504
7.30941 0.633251
7.31211 0.633949
7.31481 0.634682
7.31751 0.635513
7.3202 0.636416
7.3229 0.63753
7.3256 0.638853
7.32829 0.640532
7.33099 0.642488
7.33369 0.644484
7.33639 0.646944
7.33908 0.650054
7.34178 0.653459
7.34448 0.65784
7.34717 0.663456
7.34987 0.67017
7.35257 0.677916
7.35527 0.68717
7.35796 0.698886
7.36066 0.713564
7.36336 0.730997
7.36606 0.751015
7.36875 0.775364
7.37145 0.805024
7.37415 0.838207
7.37684 0.87652
7.37954 0.918768
7.38224 0.96548
7.38494 1.01492
7.38763 1.06412
7.39033 1.11072
7.39303 1.1544
7.39572 1.19213
7.39842 1.21903
7.40112 1.23432
7.40382 1.23722
7.40651 1.22731
7.40921 1.20518
7.41191 1.17271
7.4146 1.13247
7.4173 1.08474
7.42 1.03465
7.4227 0.98692
7.42539 0.939091
7.42809 0.892378
7.43079 0.852076
7.43349 0.816181
7.43618 0.78591
7.43888 0.759303
7.44158 0.73707
7.44427 0.719144
7.44697 0.705295
7.44967 0.693557
7.45237 0.68403
7.45506 0.676789
7.45776 0.671213
7.46046 0.666678
7.46315 0.663036
7.46585 0.660449
7.46855 0.658768
7.47125 0.657423
7.47394 0.656233
7.47664 0.655489
7.47934 0.655302
7.48203 0.65572
7.48473 0.656679
7.48743 0.658053
7.49013 0.660197
7.49282 0.663081
7.49552 0.66697
7.49822 0.671511
7.50092 0.677259
7.50361 0.683655
7.50631 0.692215
7.50901 0.702626
7.5117 0.714855
7.5144 0.730129
7.5171 0.748244
7.5198 0.770586
7.52249 0.797051
7.52519 0.827801
7.52789 0.862729
7.53058 0.904814
7.53328 0.950277
7.53598 0.998218
7.53868 1.04857
7.54137 1.09914
7.54407 1.14727
7.54677 1.18976
7.54946 1.2236
7.55216 1.2468
7.55486 1.25787
7.55756 1.25603
7.56025 1.24118
7.56295 1.21367
7.56565 1.17609
7.56835 1.13204
7.57104 1.08348
7.57374 1.03378
7.57644 0.982602
7.57913 0.933585
7.58183 0.889802
7.58453 0.852991
7.58723 0.818102
7.58992 0.789034
7.59262 0.765712
7.59532 0.746497
7.59801 0.730561
7.60071 0.718191
7.60341 0.708914
7.60611 0.701842
7.6088 0.69653
7.6115 0.692694
7.6142 0.690303
7.61689 0.689267
7.61959 0.689422
7.62229 0.690631
7.62499 0.692904
7.62768 0.696233
7.63038 0.700653
7.63308 0.706546
7.63578 0.714036
7.63847 0.722716
7.64117 0.73302
7.64387 0.746133
7.64656 0.762082
7.64926 0.781019
7.65196 0.804278
7.65466 0.833189
7.65735 0.869996
7.66005 0.913685
7.66275 0.966474
7.66544 1.03107
7.66814 1.11518
7.67084 1.20889
7.67354 1.32089
7.67623 1.45334
7.67893 1.60784
7.68163 1.78118
7.68433 1.96634
7.68702 2.16129
7.68972 2.36398
7.69242 2.56409
7.69511 2.74163
7.69781 2.89052
7.70051 3.00441
7.70321 3.07206
7.7059 3.08678
7.7086 3.04892
7.7113 2.96062
7.71399 2.82701
7.71669 2.66176
7.71939 2.47494
7.72209 2.27578
7.72478 2.06742
7.72748 1.87396
7.73018 1.69118
7.73287 1.52562
7.73557 1.37927
7.73827 1.25203
7.74097 1.14695
7.74366 1.0604
7.74636 0.986812
7.74906 0.926099
7.75176 0.879756
7.75445 0.842004
7.75715 0.810418
7.75985 0.78597
7.76254 0.766824
7.76524 0.752143
7.76794 0.740093
7.77064 0.730843
7.77333 0.724129
7.77603 0.719427
7.77873 0.716093
7.78142 0.714212
7.78412 0.71384
7.78682 0.714747
7.78952 0.717032
7.79221 0.721007
7.79491 0.726989
7.79761 0.734885
7.8003 0.745256
7.803 0.758968
7.8057 0.776026
7.8084 0.796898
7.81109 0.822634
7.81379 0.855228
7.81649 0.89413
7.81919 0.940918
7.82188 0.994276
7.82458 1.06088
7.82728 1.13573
7.82997 1.21634
7.83267 1.30321
7.83537 1.39477
7.83807 1.48639
7.84076 1.57079
7.84346 1.64592
7.84616 1.70435
7.84885 1.74381
7.85155 1.76057
7.85425 1.75336
7.85695 1.72198
7.85964 1.66927
7.86234 1.59937
7.86504 1.51785
7.86773 1.42837
7.87043 1.3349
7.87313 1.24352
7.87583 1.15766
7.87852 1.08029
7.88122 1.0092
7.88392 0.947238
7.88662 0.895772
7.88931 0.853
7.89201 0.816999
7.89471 0.786965
7.8974 0.763478
7.9001 0.744544
7.9028 0.729304
7.9055 0.716317
7.90819 0.706394
7.91089 0.698546
7.91359 0.691952
7.91628 0.686665
7.91898 0.682547
7.92168 0.679144
7.92438 0.6763
7.92707 0.674078
7.92977 0.672228
7.93247 0.670728
7.93516 0.669381
7.93786 0.668054
7.94056 0.666888
7.94326 0.666044
7.94595 0.665342
7.94865 0.664424
7.95135 0.66357
7.95405 0.663039
7.95674 0.662429
7.95944 0.66199
7.96214 0.661909
7.96483 0.661804
7.96753 0.661525
7.97023 0.661166
7.97293 0.660878
7.97562 0.660578
7.97832 0.660373
7.98102 0.660383
7.98371 0.660292
7.98641 0.660191
7.98911 0.660318
7.99181 0.660842
7.9945 0.661241
7.9972 0.661744
7.9999 0.662122
8.00259 0.662498
8.00529 0.662675
8.00799 0.662799
8.01069 0.663117
8.01338 0.663531
8.01608 0.664051
8.01878 0.664485
8.02148 0.664715
8.02417 0.665122
8.02687 0.665688
8.02957 0.666275
8.03226 0.667236
8.03496 0.668504
8.03766 0.669815
8.04036 0.671326
8.04305 0.672985
8.04575 0.67512
8.04845 0.677517
8.05114 0.679986
8.05384 0.682628
8.05654 0.685691
8.05924 0.689031
8.06193 0.69312
8.06463 0.697919
8.06733 0.703136
8.07002 0.709512
8.07272 0.717276
8.07542 0.726688
8.07812 0.738268
8.08081 0.752353
8.08351 0.770346
8.08621 0.791601
8.08891 0.817636
8.0916 0.849308
8.0943 0.889517
8.097 0.937921
8.09969 0.995142
8.10239 1.06459
8.10509 1.1494
8.10779 1.24988
8.11048 1.36339
8.11318 1.4915
8.11588 1.63679
8.11857 1.79277
8.12127 1.95109
8.12397 2.10698
8.12667 2.25535
8.12936 2.388
8.13206 2.48839
8.13476 2.5561
8.13745 2.58314
8.14015 2.56845
8.14285 2.51217
8.14555 2.42084
8.14824 2.29508
8.15094 2.14816
8.15364 1.98867
8.15634 1.82979
8.15903 1.67179
8.16173 1.521
8.16443 1.38527
8.16712 1.26783
8.16982 1.16574
8.17252 1.07561
8.17522 1.00206
8.17791 0.942441
8.18061 0.893968
8.18331 0.853504
8.186 0.821316
8.1887 0.796506
8.1914 0.776496
8.1941 0.760255
8.19679 0.747469
8.19949 0.737716
8.20219 0.730475
8.20488 0.72498
8.20758 0.720843
8.21028 0.718394
8.21298 0.717421
8.21567 0.717582
8.21837 0.719254
8.22107 0.722346
8.22377 0.726931
8.22646 0.733262
8.22916 0.741951
8.23186 0.75273
8.23455 0.766643
8.23725 0.784481
8.23995 0.80641
8.24265 0.833146
8.24534 0.863722
8.24804 0.901159
8.25074 0.945148
8.25343 0.993732
8.25613 1.04686
8.25883 1.10318
8.26153 1.16184
8.26422 1.21765
8.26692 1.26835
8.26962 1.3108
8.27231 1.3425
8.27501 1.36078
8.27771 1.3639
8.28041 1.35154
8.2831 1.32477
8.2858 1.28605
8.2885 1.23787
8.2912 1.18353
8.29389 1.12486
8.29659 1.0659
8.29929 1.01017
8.30198 0.959181
8.30468 0.911912
8.30738 0.869891
8.31008 0.834871
8.31277 0.80554
8.31547 0.780718
8.31817 0.759595
8.32086 0.742863
8.32356 0.729821
8.32626 0.718828
8.32896 0.710249
8.33165 0.703545
8.33435 0.698488
8.33705 0.694377
8.33974 0.690899
8.34244 0.688216
8.34514 0.686135
8.34784 0.684274
8.35053 0.682592
8.35323 0.681354
8.35593 0.680359
8.35863 0.679352
8.36132 0.678325
8.36402 0.677595
8.36672 0.677109
8.36941 0.676478
8.37211 0.675895
8.37481 0.675584
8.37751 0.675348
8.3802 0.674972
8.3829 0.674718
8.3856 0.674793
8.38829 0.674754
8.39099 0.674602
8.39369 0.674626
8.39639 0.67481
8.39908 0.674826
8.40178 0.67496
8.40448 0.675016
8.40717 0.675245
8.40987 0.675192
8.41257 0.675451
8.41527 0.675449
8.41796 0.675638
8.42066 0.675723
8.42336 0.675582
8.42606 0.675585
8.42875 0.675707
8.43145 0.675828
8.43415 0.675924
8.43684 0.676128
8.43954 0.676429
8.44224 0.676642
8.44494 0.67686
8.44763 0.677187
8.45033 0.677653
8.45303 0.678264
8.45572 0.678855
8.45842 0.67934
8.46112 0.679894
8.46382 0.680575
8.46651 0.681097
8.46921 0.681545
8.47191 0.682049
8.4746 0.683252
8.4773 0.684331
8.48 0.685249
8.4827 0.686758
8.48539 0.688566
8.48809 0.6908
8.49079 0.693212
8.49349 0.696394
8.49618 0.700343
8.49888 0.70534
8.50158 0.71109
8.50427 0.718853
8.50697 0.728084
8.50967 0.738685
8.51237 0.751735
8.51506 0.768074
8.51776 0.786947
8.52046 0.808757
8.52315 0.833815
8.52585 0.861656
8.52855 0.891939
8.53125 0.923534
8.53394 0.95486
8.53664 0.985336
8.53934 1.01261
8.54203 1.03408
8.54473 1.04915
8.54743 1.05665
8.55013 1.05626
8.55282 1.04756
8.55552 1.0314
8.55822 1.0088
8.56092 0.981358
8.56361 0.951595
8.56631 0.921443
8.56901 0.889864
8.5717 0.860464
8.5744 0.83434
8.5771 0.810894
8.5798 0.790817
8.58249 0.773626
8.58519 0.75977
8.58789 0.749108
8.59058 0.740248
8.59328 0.733467
8.59598 0.72872
8.59868 0.725392
8.60137 0.723099
8.60407 0.722362
8.60677 0.722833
8.60946 0.724358
8.61216 0.726876
8.61486 0.730726
8.61756 0.735566
8.62025 0.741904
8.62295 0.75046
8.62565 0.761049
8.62835 0.773935
8.63104 0.789923
8.63374 0.81006
8.63644 0.835134
8.63913 0.865122
8.64183 0.901336
8.64453 0.946094
8.64723 1.00181
8.64992 1.06497
8.65262 1.14013
8.65532 1.22818
8.65801 1.32606
8.66071 1.43494
8.66341 1.54638
8.66611 1.65943
8.6688 1.77301
8.6715 1.8729
8.6742 1.95276
8.67689 2.01096
8.67959 2.04227
8.68229 2.04325
8.68499 2.01395
8.68768 1.95758
8.69038 1.87589
8.69308 1.77676
8.69578 1.67018
8.69847 1.55622
8.70117 1.44096
8.70387 1.33359
8.70656 1.23604
8.70926 1.14824
8.71196 1.07078
8.71466 1.00467
8.71735 0.950877
8.72005 0.907003
8.72275 0.870073
8.72544 0.840645
8.72814 0.818506
8.73084 0.800911
8.73354 0.787307
8.73623 0.777548
8.73893 0.770651
8.74163 0.766415
8.74432 0.764322
8.74702 0.764679
8.74972 0.766881
8.75242 0.771196
8.75511 0.777933
8.75781 0.787295
8.76051 0.799618
8.76321 0.815545
8.7659 0.83595
8.7686 0.861961
8.7713 0.893628
8.77399 0.931629
8.77669 0.981767
8.77939 1.03976
8.78209 1.10716
8.78478 1.18712
8.78748 1.27871
8.79018 1.38043
8.79287 1.48813
8.79557 1.59757
8.79827 1.70785
8.80097 1.81153
8.80366 1.89843
8.80636 1.96482
8.80906 2.00727
8.81175 2.02118
8.81445 2.00516
8.81715 1.96072
8.81985 1.8916
8.82254 1.80074
8.82524 1.69837
8.82794 1.59116
8.83064 1.47684
8.83333 1.36756
8.83603 1.26814
8.83873 1.17776
8.84142 1.09791
8.84412 1.02877
8.84682 0.970843
8.84952 0.925518
8.85221 0.886914
8.85491 0.855328
8.85761 0.831757
8.8603 0.81262
8.863 0.797659
8.8657 0.78687
8.8684 0.778958
8.87109 0.773567
8.87379 0.77041
8.87649 0.769497
8.87918 0.77047
8.88188 0.773278
8.88458 0.778037
8.88728 0.785056
8.88997 0.794831
8.89267 0.807888
8.89537 0.824742
8.89807 0.846365
8.90076 0.873162
8.90346 0.905445
8.90616 0.946079
8.90885 0.995712
8.91155 1.0519
8.91425 1.1181
8.91695 1.19368
8.91964 1.27694
8.92234 1.36664
8.92504 1.45537
8.92773 1.54149
8.93043 1.62399
8.93313 1.69044
8.93583 1.73824
8.93852 1.76643
8.94122 1.77041
8.94392 1.74963
8.94661 1.70708
8.94931 1.64588
8.95201 1.56785
8.95471 1.4821
8.9574 1.3952
8.9601 1.30275
8.9628 1.21618
8.9655 1.13825
8.96819 1.06812
8.97089 1.00639
8.97359 0.953709
8.97628 0.910018
8.97898 0.874852
8.98168 0.84562
8.98438 0.821848
8.98707 0.803722
8.98977 0.789456
8.99247 0.777997
8.99516 0.769318
8.99786 0.763118
9.00056 0.758663
9.00326 0.755858
9.00595 0.754432
9.00865 0.754758
9.01135 0.75652
9.01404 0.759554
9.01674 0.764358
9.01944 0.771285
9.02214 0.780728
9.02483 0.792439
9.02753 0.807187
9.03023 0.825656
9.03293 0.847511
9.03562 0.875254
9.03832 0.909092
9.04102 0.945921
9.04371 0.989011
9.04641 1.03702
9.04911 1.08746
9.05181 1.14041
9.0545 1.1902
9.0572 1.23632
9.0599 1.27566
9.06259 1.30403
9.06529 1.32003
9.06799 1.32261
9.07069 1.31164
9.07338 1.28738
9.07608 1.25233
9.07878 1.20858
9.08148 1.15821
9.08417 1.10602
9.08687 1.05516
9.08957 1.0052
9.09226 0.958556
9.09496 0.918549
9.09766 0.882978
9.10036 0.85282
9.10305 0.827483
9.10575 0.806695
9.10845 0.790655
9.11114 0.777192
9.11384 0.765892
9.11654 0.75738
9.11924 0.750917
9.12193 0.746033
9.12463 0.742425
9.12733 0.740097
9.13002 0.738831
9.13272 0.738373
9.13542 0.738895
9.13812 0.740514
9.14081 0.742915
9.14351 0.746265
9.14621 0.750609
9.14891 0.756531
9.1516 0.764028
9.1543 0.773424
9.157 0.785361
9.15969 0.799709
9.16239 0.816461
9.16509 0.837081
9.16779 0.860451
9.17048 0.885799
9.17318 0.91347
9.17588 0.942487
9.17857 0.971408
9.18127 0.998554
9.18397 1.02201
9.18667 1.04071
9.18936 1.05347
9.19206 1.05855
9.19476 1.05561
9.19745 1.04491
9.20015 1.02794
9.20285 1.00537
9.20555 0.978876
9.20824 0.950257
9.21094 0.920361
9.21364 0.892676
9.21634 0.867758
9.21903 0.84287
9.22173 0.82285
9.22443 0.805844
9.22712 0.791466
9.22982 0.77982
9.23252 0.770972
9.23522 0.764369
9.23791 0.759871
9.24061 0.756505
9.24331 0.754443
9.246 0.753994
9.2487 0.754918
9.2514 0.756683
9.2541 0.759526
9.25679 0.764095
9.25949 0.770102
9.26219 0.778123
9.26488 0.788539
9.26758 0.801266
9.27028 0.817757
9.27298 0.838705
9.27567 0.864187
9.27837 0.895639
9.28107 0.934224
9.28377 0.981146
9.28646 1.03688
9.28916 1.09983
9.29186 1.17196
9.29455 1.25629
9.29725 1.3424
9.29995 1.43069
9.30265 1.51943
9.30534 1.60066
9.30804 1.66991
9.31074 1.72252
9.31343 1.7537
9.31613 1.76154
9.31883 1.74604
9.32153 1.7087
9.32422 1.64803
9.32692 1.57445
9.32962 1.4915
9.33231 1.4018
9.33501 1.31291
9.33771 1.22589
9.34041 1.1465
9.3431 1.07758
9.3458 1.01358
9.3485 0.959723
9.3512 0.916461
9.35389 0.880256
9.35659 0.850284
9.35929 0.826143
9.36198 0.806895
9.36468 0.79176
9.36738 0.779346
9.37008 0.769305
9.37277 0.761911
9.37547 0.756085
9.37817 0.751066
9.38086 0.747027
9.38356 0.743803
9.38626 0.741184
9.38896 0.739007
9.39165 0.737094
9.39435 0.735768
9.39705 0.734634
9.39974 0.733436
9.40244 0.732304
9.40514 0.731382
9.40784 0.730317
9.41053 0.729171
9.41323 0.728461
9.41593 0.728061
9.41863 0.727587
9.42132 0.727396
9.42402 0.727585
9.42672 0.727442
9.42941 0.727171
9.43211 0.727007
9.43481 0.727052
9.43751 0.727143
9.4402 0.727477
9.4429 0.727899
9.4456 0.728248
9.44829 0.728508
9.45099 0.728621
9.45369 0.728702
9.45639 0.728792
9.45908 0.729028
9.46178 0.729161
9.46448 0.72947
9.46717 0.730011
9.46987 0.730545
9.47257 0.731092
9.47527 0.731668
9.47796 0.732435
9.48066 0.733261
9.48336 0.73389
9.48606 0.734739
9.48875 0.736257
9.49145 0.737934
9.49415 0.739801
9.49684 0.742224
9.49954 0.744923
9.50224 0.74797
9.50494 0.752017
9.50763 0.756946
9.51033 0.762687
9.51303 0.770235
9.51572 0.779237
9.51842 0.790984
9.52112 0.804697
9.52382 0.821258
9.52651 0.842654
9.52921 0.866832
9.53191 0.894932
9.5346 0.926689
9.5373 0.961045
9.54 0.998782
9.5427 1.03605
9.54539 1.07124
9.54809 1.10477
9.55079 1.13246
9.55349 1.15235
9.55618 1.16367
9.55888 1.16517
9.56158 1.15649
9.56427 1.13896
9.56697 1.11369
9.56967 1.08168
9.57237 1.04647
9.57506 1.01072
9.57776 0.974167
9.58046 0.939336
9.58315 0.908894
9.58585 0.881803
9.58855 0.858591
9.59125 0.839099
9.59394 0.823782
9.59664 0.812166
9.59934 0.803354
9.60203 0.796905
9.60473 0.793294
9.60743 0.791242
9.61013 0.791239
9.61282 0.793266
9.61552 0.797215
9.61822 0.803
9.62092 0.811335
9.62361 0.823004
9.62631 0.837256
9.62901 0.856066
9.6317 0.880621
9.6344 0.909601
9.6371 0.946998
9.6398 0.991678
9.64249 1.04859
9.64519 1.11793
9.64789 1.19687
9.65058 1.2912
9.65328 1.39994
9.65598 1.51677
9.65868 1.64241
9.66137 1.77098
9.66407 1.89524
9.66677 2.0094
9.66946 2.10358
9.67216 2.17169
9.67486 2.21043
9.67756 2.21547
9.68025 2.18546
9.68295 2.12263
9.68565 2.03379
9.68835 1.92523
9.69104 1.80293
9.69374 1.67582
9.69644 1.5456
9.69913 1.42578
9.70183 1.31862
9.70453 1.21814
9.70723 1.13306
9.70992 1.06333
9.71262 1.00392
9.71532 0.956255
9.71801 0.917318
9.72071 0.88715
9.72341 0.864427
9.72611 0.844936
9.7288 0.830693
9.7315 0.820691
9.7342 0.813294
9.73689 0.808453
9.73959 0.806178
9.74229 0.805966
9.74499 0.807973
9.74768 0.81218
9.75038 0.818997
9.75308 0.828761
9.75578 0.842006
9.75847 0.858867
9.76117 0.880274
9.76387 0.906095
9.76656 0.936905
9.76926 0.97348
9.77196 1.01456
9.77466 1.05856
9.77735 1.10617
9.78005 1.15404
9.78275 1.19776
9.78544 1.23652
9.78814 1.2671
9.79084 1.28677
9.79354 1.29481
9.79623 1.29007
9.79893 1.2721
9.80163 1.24325
9.80432 1.20684
9.80702 1.16295
9.80972 1.11481
9.81242 1.06735
9.81511 1.02021
9.81781 0.977697
9.82051 0.938134
9.82321 0.903458
9.8259 0.875723
9.8286 0.851693
9.8313 0.8319
9.83399 0.816661
9.83669 0.804505
9.83939 0.79486
9.84209 0.787559
9.84478 0.782027
9.84748 0.778042
9.85018 0.775195
9.85287 0.773559
9.85557 0.773062
9.85827 0.773574
9.86097 0.775297
9.86366 0.778132
9.86636 0.782466
9.86906 0.788441
9.87175 0.796261
9.87445 0.806086
9.87715 0.817811
9.87985 0.832098
9.88254 0.849062
9.88524 0.868351
9.88794 0.890097
9.89064 0.913903
9.89333 0.939249
9.89603 0.964924
9.89873 0.988606
9.90142 1.00953
9.90412 1.02649
9.90682 1.03709
9.90952 1.04128
9.91221 1.03868
9.91491 1.02957
9.91761 1.01459
9.9203 0.995192
9.923 0.971538
9.9257 0.945637
9.9284 0.920634
9.93109 0.895237
9.93379 0.871321
9.93649 0.850724
9.93918 0.832459
9.94188 0.817463
9.94458 0.804525
9.94728 0.79398
9.94997 0.786145
9.95267 0.779945
9.95537 0.775272
9.95807 0.772166
9.96076 0.770091
9.96346 0.768646
9.96616 0.767929
9.96885 0.768073
9.97155 0.769136
9.97425 0.770677
9.97695 0.772791
9.97964 0.775829
9.98234 0.780048
9.98504 0.785622
9.98773 0.792776
9.99043 0.801785
9.99313 0.812699
9.99583 0.825726
9.99852 0.841043
10.0012 0.858294
10.0039 0.877398
10.0066 0.897971
10.0093 0.918799
10.012 0.939278
10.0147 0.958114
10.0174 0.973857
10.0201 0.985842
10.0228 0.992835
10.0255 0.994187
10.0282 0.990005
10.0309 0.980394
10.0336 0.9661
10.0363 0.948286
10.039 0.928702
10.0417 0.907531
10.0444 0.887839
10.0471 0.868678
10.0498 0.850989
10.0525 0.8365
10.0552 0.824238
10.0579 0.814293
10.0606 0.80668
10.0633 0.801303
10.066 0.797808
10.0687 0.795686
10.0713 0.795195
10.074 0.79631
10.0767 0.798863
10.0794 0.802855
10.0821 0.808304
10.0848 0.81548
10.0875 0.824914
10.0902 0.837615
10.0929 0.853553
10.0956 0.87346
10.0983 0.899124
10.101 0.930927
10.1037 0.969628
10.1064 1.01699
10.1091 1.07416
10.1118 1.14131
10.1145 1.21712
10.1172 1.30039
10.1199 1.39034
10.1226 1.4825
10.1253 1.57058
10.128 1.6515
10.1307 1.72099
10.1334 1.77125
10.1361 1.79906
10.1388 1.80294
10.1415 1.78203
10.1442 1.73858
10.1469 1.67632
10.1496 1.59798
10.1523 1.50825
10.155 1.41783
10.1577 1.32827
10.1604 1.24074
10.1631 1.16294
10.1657 1.09452
10.1684 1.03705
10.1711 0.986427
10.1738 0.945388
10.1765 0.913696
10.1792 0.888005
10.1819 0.867566
10.1846 0.852843
10.1873 0.842356
10.19 0.835263
10.1927 0.831177
10.1954 0.829951
10.1981 0.831373
10.2008 0.835236
10.2035 0.841799
10.2062 0.851432
10.2089 0.864753
10.2116 0.882375
10.2143 0.90517
10.217 0.933208
10.2197 0.967379
10.2224 1.00945
10.2251 1.058
10.2278 1.11173
10.2305 1.17151
10.2332 1.235
10.2359 1.29842
10.2386 1.35812
10.2413 1.41078
10.244 1.45426
10.2467 1.48269
10.2494 1.49401
10.2521 1.48818
10.2548 1.46573
10.2575 1.42789
10.2602 1.37789
10.2628 1.31875
10.2655 1.25332
10.2682 1.18937
10.2709 1.12744
10.2736 1.06679
10.2763 1.0154
10.279 0.970768
10.2817 0.932827
10.2844 0.900535
10.2871 0.874656
10.2898 0.854201
10.2925 0.836819
10.2952 0.822936
10.2979 0.812418
10.3006 0.804112
10.3033 0.797126
10.306 0.792151
10.3087 0.788229
10.3114 0.784823
10.3141 0.781951
10.3168 0.779848
10.3195 0.778194
10.3222 0.776796
10.3249 0.775485
10.3276 0.774354
10.3303 0.773336
10.333 0.772239
10.3357 0.771377
10.3384 0.770802
10.3411 0.770084
10.3438 0.76942
10.3465 0.769266
10.3492 0.76934
10.3519 0.769195
10.3546 0.769022
10.3573 0.769214
10.3599 0.769411
10.3626 0.769581
10.3653 0.769562
10.368 0.769662
10.3707 0.76937
10.3734 0.769085
10.3761 0.76874
10.3788 0.768419
10.3815 0.768031
10.3842 0.767426
10.3869 0.767432
10.3896 0.767653
10.3923 0.768093
10.395 0.768252
10.3977 0.768835
10.4004 0.769273
10.4031 0.769818
10.4058 0.769962
10.4085 0.770196
10.4112 0.770905
10.4139 0.771645
10.4166 0.772462
10.4193 0.773365
10.422 0.774767
10.4247 0.776391
10.4274 0.778564
10.4301 0.781324
10.4328 0.784821
10.4355 0.789107
10.4382 0.794197
10.4409 0.800327
10.4436 0.807503
10.4463 0.815908
10.449 0.825392
10.4517 0.835584
10.4544 0.846148
10.457 0.856209
10.4597 0.865389
10.4624 0.873559
10.4651 0.879774
10.4678 0.883744
10.4705 0.885432
10.4732 0.884267
10.4759 0.880433
10.4786 0.874609
10.4813 0.867253
10.484 0.858187
10.4867 0.848216
10.4894 0.83904
10.4921 0.830325
10.4948 0.822514
10.4975 0.815368
10.5002 0.809401
10.5029 0.804407
10.5056 0.800702
10.5083 0.797969
10.511 0.796337
10.5137 0.796204
10.5164 0.79627
10.5191 0.797083
10.5218 0.799243
10.5245 0.802044
10.5272 0.805692
10.5299 0.810785
10.5326 0.817867
10.5353 0.826933
10.538 0.838391
10.5407 0.852816
10.5434 0.87027
10.5461 0.892154
10.5488 0.918874
10.5514 0.949808
10.5541 0.985712
10.5568 1.02729
10.5595 1.07206
10.5622 1.11902
10.5649 1.16612
10.5676 1.21129
10.5703 1.25156
10.573 1.28315
10.5757 1.30433
10.5784 1.31373
10.5811 1.31045
10.5838 1.29457
10.5865 1.26719
10.5892 1.231
10.5919 1.18857
10.5946 1.14294
10.5973 1.09598
10.6 1.05073
10.6027 1.01036
10.6054 0.973735
10.6081 0.941248
10.6108 0.915272
10.6135 0.894377
10.6162 0.877941
10.6189 0.865133
10.6216 0.856107
10.6243 0.850491
10.627 0.846976
10.6297 0.846734
10.6324 0.849329
10.6351 0.85436
10.6378 0.862385
10.6405 0.873912
10.6432 0.888975
10.6459 0.908723
10.6485 0.935149
10.6512 0.967633
10.6539 1.00743
10.6566 1.05841
10.6593 1.11775
10.662 1.18683
10.6647 1.26422
10.6674 1.34996
10.6701 1.4399
10.6728 1.52669
10.6755 1.60979
10.6782 1.68321
10.6809 1.73959
10.6836 1.77586
10.6863 1.78897
10.689 1.77787
10.6917 1.74301
10.6944 1.68775
10.6971 1.61501
10.6998 1.53188
10.7025 1.44509
10.7052 1.3561
10.7079 1.27002
10.7106 1.19231
10.7133 1.12376
10.716 1.06423
10.7187 1.01364
10.7214 0.973368
10.7241 0.941473
10.7268 0.91569
10.7295 0.896063
10.7322 0.881686
10.7349 0.871264
10.7376 0.864329
10.7403 0.860936
10.743 0.860623
10.7456 0.863026
10.7483 0.868748
10.751 0.877652
10.7537 0.890381
10.7564 0.907907
10.7591 0.930473
10.7618 0.958331
10.7645 0.992199
10.7672 1.03462
10.7699 1.082
10.7726 1.13401
10.7753 1.19074
10.778 1.24939
10.7807 1.30523
10.7834 1.35474
10.7861 1.39655
10.7888 1.42678
10.7915 1.442
10.7942 1.44116
10.7969 1.42495
10.7996 1.39433
10.8023 1.35167
10.805 1.30039
10.8077 1.24323
10.8104 1.18496
10.8131 1.12937
10.8158 1.07582
10.8185 1.02771
10.8212 0.9868
10.8239 0.951981
10.8266 0.922768
10.8293 0.898943
10.832 0.880456
10.8347 0.866115
10.8374 0.854757
10.84 0.846687
10.8427 0.841484
10.8454 0.838063
10.8481 0.836508
10.8508 0.837263
10.8535 0.839822
10.8562 0.844074
10.8589 0.85072
10.8616 0.859668
10.8643 0.870896
10.867 0.885523
10.8697 0.903491
10.8724 0.924729
10.8751 0.949518
10.8778 0.977454
10.8805 1.00745
10.8832 1.03768
10.8859 1.06761
10.8886 1.09532
10.8913 1.11758
10.894 1.13413
10.8967 1.14255
10.8994 1.14264
10.9021 1.13447
10.9048 1.11839
10.9075 1.09532
10.9102 1.06798
10.9129 1.03872
10.9156 1.00672
10.9183 0.977095
10.921 0.949842
10.9237 0.925426
10.9264 0.904259
10.9291 0.886393
10.9318 0.872265
10.9345 0.860753
10.9371 0.852367
10.9398 0.846247
10.9425 0.84214
10.9452 0.840322
10.9479 0.840329
10.9506 0.842184
10.9533 0.846552
10.956 0.853456
10.9587 0.862495
10.9614 0.874259
10.9641 0.889622
10.9668 0.908951
10.9695 0.933187
10.9722 0.962641
10.9749 0.998356
10.9776 1.04091
10.9803 1.0881
10.983 1.1404
10.9857 1.19707
10.9884 1.25264
10.9911 1.30557
10.9938 1.35307
10.9965 1.39076
10.9992 1.41636
11.0019 1.42737
11.0046 1.42266
11.0073 1.4031
11.01 1.37127
11.0127 1.32724
11.0154 1.27517
11.0181 1.22086
11.0208 1.1649
11.0235 1.11155
11.0262 1.06093
11.0289 1.01803
11.0316 0.981979
11.0342 0.949778
11.0369 0.925189
11.0396 0.9063
11.0423 0.891971
11.045 0.881409
11.0477 0.874704
11.0504 0.871812
11.0531 0.871694
11.0558 0.875194
11.0585 0.881634
11.0612 0.891673
11.0639 0.905561
11.0666 0.924115
11.0693 0.948039
11.072 0.979142
11.0747 1.01869
11.0774 1.06534
11.0801 1.12112
11.0828 1.18662
11.0855 1.25848
11.0882 1.33621
11.0909 1.41593
11.0936 1.49378
11.0963 1.5648
11.099 1.6223
11.1017 1.66368
11.1044 1.68592
11.1071 1.68597
11.1098 1.66363
11.1125 1.62147
11.1152 1.56264
11.1179 1.49228
11.1206 1.41483
11.1233 1.33307
11.126 1.25477
11.1287 1.18269
11.1313 1.11582
11.134 1.05794
11.1367 1.00979
11.1394 0.969557
11.1421 0.936241
11.1448 0.909367
11.1475 0.889075
11.1502 0.872345
11.1529 0.858469
11.1556 0.848763
11.1583 0.841162
11.161 0.834723
11.1637 0.829641
11.1664 0.82585
11.1691 0.823073
11.1718 0.820547
11.1745 0.818511
11.1772 0.816734
11.1799 0.814782
11.1826 0.813384
11.1853 0.812033
11.188 0.810967
11.1907 0.810018
11.1934 0.809802
11.1961 0.809369
11.1988 0.809065
11.2015 0.808875
11.2042 0.808683
11.2069 0.809366
11.2096 0.809547
11.2123 0.809491
11.215 0.809659
11.2177 0.809871
11.2204 0.809688
11.2231 0.809771
11.2257 0.809907
11.2284 0.809906
11.2311 0.810304
11.2338 0.810974
11.2365 0.811565
11.2392 0.812225
11.2419 0.813188
11.2446 0.814636
11.2473 0.816116
11.25 0.817702
11.2527 0.819741
11.2554 0.822073
11.2581 0.824965
11.2608 0.828805
11.2635 0.833594
11.2662 0.839893
11.2689 0.848286
11.2716 0.858937
11.2743 0.872322
11.277 0.888834
11.2797 0.909424
11.2824 0.934235
11.2851 0.962449
11.2878 0.994852
11.2905 1.03083
11.2932 1.06817
11.2959 1.10649
11.2986 1.14242
11.3013 1.17363
11.304 1.19815
11.3067 1.21413
11.3094 1.22078
11.3121 1.21736
11.3148 1.20333
11.3175 1.18012
11.3202 1.15147
11.3228 1.11672
11.3255 1.07974
11.3282 1.04261
11.3309 1.00712
11.3336 0.976174
11.3363 0.946433
11.339 0.922511
11.3417 0.90302
11.3444 0.886382
11.3471 0.873725
11.3498 0.863826
11.3525 0.857005
11.3552 0.852715
11.3579 0.850705
11.3606 0.851413
11.3633 0.854029
11.366 0.858727
11.3687 0.866055
11.3714 0.875892
11.3741 0.888418
11.3768 0.905238
11.3795 0.925526
11.3822 0.950548
11.3849 0.981166
11.3876 1.01592
11.3903 1.05502
11.393 1.09694
11.3957 1.14005
11.3984 1.18141
11.4011 1.21772
11.4038 1.24837
11.4065 1.27033
11.4092 1.28085
11.4119 1.27979
11.4146 1.26723
11.4173 1.24426
11.4199 1.21237
11.4226 1.17352
11.4253 1.13072
11.428 1.08786
11.4307 1.04596
11.4334 1.00643
11.4361 0.97259
11.4388 0.943081
11.4415 0.918733
11.4442 0.898586
11.4469 0.882979
11.4496 0.871484
11.4523 0.862489
11.455 0.856636
11.4577 0.852908
11.4604 0.850909
11.4631 0.850688
11.4658 0.85227
11.4685 0.855765
11.4712 0.861841
11.4739 0.870439
11.4766 0.881324
11.4793 0.896359
11.482 0.915166
11.4847 0.937175
11.4874 0.962518
11.4901 0.991276
11.4928 1.02265
11.4955 1.05304
11.4982 1.08267
11.5009 1.10974
11.5036 1.13153
11.5063 1.14696
11.509 1.15446
11.5117 1.15349
11.5144 1.14363
11.517 1.12649
11.5197 1.1022
11.5224 1.07469
11.5251 1.0443
11.5278 1.01255
11.5305 0.983123
11.5332 0.955759
11.5359 0.931804
11.5386 0.911259
11.5413 0.894563
11.544 0.881658
11.5467 0.871347
11.5494 0.863939
11.5521 0.859171
11.5548 0.856428
11.5575 0.855945
11.5602 0.857886
11.5629 0.862008
11.5656 0.868683
11.5683 0.878049
11.571 0.89018
11.5737 0.90651
11.5764 0.92746
11.5791 0.953294
11.5818 0.984697
11.5845 1.0216
11.5872 1.0643
11.5899 1.11048
11.5926 1.15868
11.5953 1.20817
11.598 1.25422
11.6007 1.2941
11.6034 1.32514
11.6061 1.34473
11.6088 1.35134
11.6114 1.34426
11.6141 1.32326
11.6168 1.29199
11.6195 1.25207
11.6222 1.20487
11.6249 1.15531
11.6276 1.10563
11.6303 1.05956
11.633 1.01691
11.6357 0.979015
11.6384 0.948575
11.6411 0.922419
11.6438 0.901036
11.6465 0.884667
11.6492 0.871587
11.6519 0.860994
11.6546 0.852642
11.6573 0.846166
11.66 0.84056
11.6627 0.836317
11.6654 0.833214
11.6681 0.830722
11.6708 0.828509
11.6735 0.826751
11.6762 0.825247
11.6789 0.824015
11.6816 0.822615
11.6843 0.821713
11.687 0.82119
11.6897 0.820478
11.6924 0.82032
11.6951 0.820103
11.6978 0.81991
11.7005 0.820003
11.7032 0.820015
11.7059 0.819968
11.7085 0.820053
11.7112 0.820218
11.7139 0.820642
11.7166 0.821093
11.7193 0.821589
11.722 0.82188
11.7247 0.822155
11.7274 0.822425
11.7301 0.82284
11.7328 0.82369
11.7355 0.824595
11.7382 0.825474
11.7409 0.826662
11.7436 0.828106
11.7463 0.829961
11.749 0.832566
11.7517 0.835939
11.7544 0.84014
11.7571 0.845392
11.7598 0.851981
11.7625 0.859975
11.7652 0.8699
11.7679 0.882813
11.7706 0.898739
11.7733 0.918169
11.776 0.942116
11.7787 0.970164
11.7814 1.00245
11.7841 1.03901
11.7868 1.07842
11.7895 1.11869
11.7922 1.15713
11.7949 1.19299
11.7976 1.22187
11.8003 1.24212
11.803 1.25259
11.8056 1.25176
11.8083 1.2396
11.811 1.21815
11.8137 1.18757
11.8164 1.1515
11.8191 1.11406
11.8218 1.07384
11.8245 1.03604
11.8272 1.00252
11.8299 0.972259
11.8326 0.946307
11.8353 0.925467
11.838 0.909828
11.8407 0.897384
11.8434 0.888666
11.8461 0.883359
11.8488 0.881388
11.8515 0.882216
11.8542 0.886186
11.8569 0.893695
11.8596 0.904997
11.8623 0.920814
11.865 0.940944
11.8677 0.966909
11.8704 0.999981
11.8731 1.04026
11.8758 1.08801
11.8785 1.1436
11.8812 1.20541
11.8839 1.26928
11.8866 1.3347
11.8893 1.39777
11.892 1.45272
11.8947 1.49616
11.8974 1.52484
11.9 1.5359
11.9027 1.52844
11.9054 1.5027
11.9081 1.46114
11.9108 1.40809
11.9135 1.34653
11.9162 1.28025
11.9189 1.21409
11.9216 1.152
11.9243 1.09524
11.927 1.04452
11.9297 1.00211
11.9324 0.967475
11.9351 0.938461
11.9378 0.91507
11.9405 0.896962
11.9432 0.882846
11.9459 0.871778
11.9486 0.863085
11.9513 0.856671
11.954 0.851431
11.9567 0.847027
11.9594 0.843617
11.9621 0.840457
11.9648 0.83782
11.9675 0.83592
11.9702 0.834344
11.9729 0.832991
11.9756 0.832118
11.9783 0.831461
11.981 0.830779
11.9837 0.829925
11.9864 0.828973
11.9891 0.828251
11.9918 0.827329
11.9945 0.82648
11.9971 0.825782
11.9998 0.825025
12.0025 0.824628
12.0052 0.824789
12.0079 0.82561
12.0106 0.825767
12.0133 0.826589
12.016 0.827021
12.0187 0.826979
12.0214 0.827195
12.0241 0.827395
12.0268 0.827283
12.0295 0.827958
12.0322 0.82857
12.0349 0.829171
12.0376 0.829934
12.0403 0.830732
12.043 0.831011
12.0457 0.831585
12.0484 0.832652
12.0511 0.833904
12.0538 0.835204
12.0565 0.836723
12.0592 0.839042
12.0619 0.841991
12.0646 0.84503
12.0673 0.848884
12.07 0.853447
12.0727 0.858334
12.0754 0.863354
12.0781 0.86871
12.0808 0.873813
12.0835 0.877919
12.0862 0.881325
12.0889 0.883621
12.0916 0.884282
12.0942 0.883436
12.0969 0.881355
12.0996 0.878379
12.1023 0.874751
12.105 0.870765
12.1077 0.866958
12.1104 0.863223
12.1131 0.86003
12.1158 0.857867
12.1185 0.856719
12.1212 0.856332
12.1239 0.856571
12.1266 0.857699
12.1293 0.859767
12.132 0.862787
12.1347 0.866878
12.1374 0.872739
12.1401 0.881023
12.1428 0.892115
12.1455 0.906856
12.1482 0.926159
12.1509 0.950891
12.1536 0.98114
12.1563 1.01801
12.159 1.06273
12.1617 1.11452
12.1644 1.17256
12.1671 1.23669
12.1698 1.30433
12.1725 1.36954
12.1752 1.42945
12.1779 1.48158
12.1806 1.5194
12.1833 1.54099
12.186 1.54431
12.1887 1.52929
12.1913 1.49733
12.194 1.44973
12.1967 1.39117
12.1994 1.32706
12.2021 1.26099
12.2048 1.19538
12.2075 1.13646
12.2102 1.08462
12.2129 1.04001
12.2156 1.0033
12.2183 0.974508
12.221 0.952492
12.2237 0.935316
12.2264 0.92395
12.2291 0.916693
12.2318 0.912854
12.2345 0.913421
12.2372 0.917818
12.2399 0.926724
12.2426 0.940528
12.2453 0.959009
12.248 0.982941
12.2507 1.01409
12.2534 1.0519
12.2561 1.09575
12.2588 1.1466
12.2615 1.201
12.2642 1.256
12.2669 1.30985
12.2696 1.3585
12.2723 1.39765
12.275 1.42409
12.2777 1.4357
12.2804 1.43168
12.2831 1.41233
12.2857 1.37882
12.2884 1.33419
12.2911 1.28208
12.2938 1.22678
12.2965 1.17037
12.2992 1.11703
12.3019 1.06949
12.3046 1.02665
12.3073 0.990055
12.31 0.960307
12.3127 0.936262
12.3154 0.916941
12.3181 0.902206
12.3208 0.891215
12.3235 0.882844
12.3262 0.876964
12.3289 0.872928
12.3316 0.870168
12.3343 0.868834
12.337 0.868613
12.3397 0.869605
12.3424 0.872143
12.3451 0.875899
12.3478 0.880724
12.3505 0.886677
12.3532 0.893658
12.3559 0.901131
12.3586 0.908381
12.3613 0.91504
12.364 0.920579
12.3667 0.924453
12.3694 0.926598
12.3721 0.926993
12.3748 0.9252
12.3775 0.921074
12.3802 0.915356
12.3828 0.908796
12.3855 0.901539
12.3882 0.894128
12.3909 0.887332
12.3936 0.881136
12.3963 0.875191
12.399 0.870314
12.4017 0.866928
12.4044 0.864228
12.4071 0.862578
12.4098 0.862089
12.4125 0.862482
12.4152 0.863921
12.4179 0.866509
12.4206 0.870215
12.4233 0.875549
12.426 0.88299
12.4287 0.892467
12.4314 0.904778
12.4341 0.920304
12.4368 0.938572
12.4395 0.960535
12.4422 0.985979
12.4449 1.01425
12.4476 1.04341
12.4503 1.07312
12.453 1.10091
12.4557 1.12373
12.4584 1.14152
12.4611 1.15218
12.4638 1.15519
12.4665 1.15014
12.4692 1.13702
12.4719 1.11667
12.4746 1.09275
12.4773 1.06501
12.4799 1.03652
12.4826 1.00933
12.4853 0.984236
12.488 0.961417
12.4907 0.942649
12.4934 0.928404
12.4961 0.916559
12.4988 0.908398
12.5015 0.903648
12.5042 0.901636
12.5069 0.903023
12.5096 0.907368
12.5123 0.91463
12.515 0.92624
12.5177 0.942008
12.5204 0.962953
12.5231 0.991414
12.5258 1.02662
12.5285 1.0696
12.5312 1.12085
12.5339 1.1802
12.5366 1.24373
12.5393 1.31013
12.542 1.37715
12.5447 1.4378
12.5474 1.4894
12.5501 1.52786
12.5528 1.5496
12.5555 1.5531
12.5582 1.5369
12.5609 1.50286
12.5636 1.45528
12.5663 1.39613
12.569 1.33024
12.5717 1.26294
12.5744 1.19854
12.577 1.1391
12.5797 1.08581
12.5824 1.04128
12.5851 1.00442
12.5878 0.974509
12.5905 0.951652
12.5932 0.934306
12.5959 0.921531
12.5986 0.91223
12.6013 0.906619
12.604 0.904504
12.6067 0.905248
12.6094 0.909126
12.6121 0.916172
12.6148 0.926423
12.6175 0.940464
12.6202 0.957879
12.6229 0.97889
12.6256 1.00323
12.6283 1.02883
12.631 1.05584
12.6337 1.08184
12.6364 1.10463
12.6391 1.12337
12.6418 1.13602
12.6445 1.14166
12.6472 1.13957
12.6499 1.12925
12.6526 1.11274
12.6553 1.09076
12.658 1.06435
12.6607 1.03664
12.6634 1.00916
12.6661 0.983526
12.6688 0.958664
12.6714 0.93823
12.6741 0.920158
12.6768 0.904873
12.6795 0.892788
12.6822 0.883305
12.6849 0.876032
12.6876 0.870341
12.6903 0.866401
12.693 0.863198
12.6957 0.860396
12.6984 0.858791
12.7011 0.857401
12.7038 0.85569
12.7065 0.854854
12.7092 0.854347
12.7119 0.853185
12.7146 0.852734
12.7173 0.852606
12.72 0.852542
12.7227 0.852486
12.7254 0.852476
12.7281 0.851935
12.7308 0.851444
12.7335 0.85142
12.7362 0.851305
12.7389 0.851235
12.7416 0.851495
12.7443 0.852146
12.747 0.852337
12.7497 0.852501
12.7524 0.852616
12.7551 0.85259
12.7578 0.852622
12.7605 0.852585
12.7632 0.852691
12.7659 0.853188
12.7685 0.853834
12.7712 0.854985
12.7739 0.8563
12.7766 0.858164
12.7793 0.860465
12.782 0.863375
12.7847 0.866629
12.7874 0.870617
12.7901 0.875357
12.7928 0.88165
12.7955 0.889409
12.7982 0.899137
12.8009 0.911362
12.8036 0.925302
12.8063 0.940692
12.809 0.956748
12.8117 0.973128
12.8144 0.988362
12.8171 1.00085
12.8198 1.01061
12.8225 1.01634
12.8252 1.01722
12.8279 1.01423
12.8306 1.00703
12.8333 0.996341
12.836 0.983173
12.8387 0.968525
12.8414 0.953806
12.8441 0.9391
12.8468 0.925306
12.8495 0.913453
12.8522 0.903596
12.8549 0.895834
12.8576 0.889948
12.8603 0.885882
12.863 0.88312
12.8656 0.881322
12.8683 0.880964
12.871 0.881942
12.8737 0.884309
12.8764 0.888417
12.8791 0.894552
12.8818 0.903131
12.8845 0.913865
12.8872 0.927052
12.8899 0.943216
12.8926 0.961786
12.8953 0.982442
12.898 1.00423
12.9007 1.026
12.9034 1.04611
12.9061 1.06307
12.9088 1.07593
12.9115 1.0835
12.9142 1.08515
12.9169 1.08108
12.9196 1.07144
12.9223 1.05708
12.925 1.0388
12.9277 1.01838
12.9304 0.99836
12.9331 0.978561
12.9358 0.960777
12.9385 0.945968
12.9412 0.933797
12.9439 0.924746
12.9466 0.919062
12.9493 0.915909
12.952 0.915423
12.9547 0.917944
12.9574 0.923164
12.96 0.932553
12.9627 0.946148
12.9654 0.963936
12.9681 0.987697
12.9708 1.01921
12.9735 1.05711
12.9762 1.10503
12.9789 1.16189
12.9816 1.22698
12.9843 1.2961
12.987 1.36967
12.9897 1.44221
12.9924 1.50588
12.9951 1.56096
12.9978 1.59934
13.0005 1.61863
13.0032 1.6172
13.0059 1.59344
13.0086 1.55236
13.0113 1.49697
13.014 1.42694
13.0167 1.35679
13.0194 1.28386
13.0221 1.21441
13.0248 1.15169
13.0275 1.09928
13.0302 1.05393
13.0329 1.01718
13.0356 0.990104
13.0383 0.968165
13.041 0.951817
13.0437 0.940874
13.0464 0.934377
13.0491 0.931308
13.0518 0.931965
13.0545 0.936543
13.0571 0.945028
13.0598 0.957765
13.0625 0.97574
13.0652 0.997587
13.0679 1.02483
13.0706 1.05428
13.0733 1.08639
13.076 1.11971
13.0787 1.15
13.0814 1.17699
13.0841 1.19751
13.0868 1.20963
13.0895 1.21244
13.0922 1.20565
13.0949 1.1902
13.0976 1.16779
13.1003 1.13851
13.103 1.10648
13.1057 1.07359
13.1084 1.04141
13.1111 1.01058
13.1138 0.984231
13.1165 0.961208
13.1192 0.94163
13.1219 0.926185
13.1246 0.914138
13.1273 0.904651
13.13 0.897702
13.1327 0.893191
13.1354 0.890406
13.1381 0.889912
13.1408 0.89155
13.1435 0.893771
13.1462 0.897592
13.1489 0.903193
13.1516 0.90989
13.1542 0.91844
13.1569 0.928169
13.1596 0.938411
13.1623 0.94926
13.165 0.959809
13.1677 0.969023
13.1704 0.976502
13.1731 0.981916
13.1758 0.98411
13.1785 0.982701
13.1812 0.978731
13.1839 0.97238
13.1866 0.963585
13.1893 0.953895
13.192 0.943686
13.1947 0.933268
13.1974 0.923711
13.2001 0.915749
13.2028 0.909264
13.2055 0.904271
13.2082 0.901051
13.2109 0.899912
13.2136 0.900648
13.2163 0.902988
13.219 0.907349
13.2217 0.913991
13.2244 0.923259
13.2271 0.936236
13.2298 0.953871
13.2325 0.976802
13.2352 1.00551
13.2379 1.04098
13.2406 1.08309
13.2433 1.13017
13.246 1.18122
13.2487 1.23387
13.2513 1.28421
13.254 1.32879
13.2567 1.36492
13.2594 1.38976
13.2621 1.40039
13.2648 1.39562
13.2675 1.37624
13.2702 1.34465
13.2729 1.30274
13.2756 1.25379
13.2783 1.2024
13.281 1.1518
13.2837 1.1034
13.2864 1.06072
13.2891 1.0238
13.2918 0.992713
13.2945 0.967879
13.2972 0.948945
13.2999 0.934301
13.3026 0.923156
13.3053 0.915708
13.308 0.91089
13.3107 0.908866
13.3134 0.909746
13.3161 0.912927
13.3188 0.91864
13.3215 0.92696
13.3242 0.937732
13.3269 0.950953
13.3296 0.965953
13.3323 0.982217
13.335 0.998948
13.3377 1.0154
13.3404 1.02994
13.3431 1.04125
13.3457 1.04889
13.3484 1.05158
13.3511 1.04899
13.3538 1.04129
13.3565 1.02937
13.3592 1.01387
13.3619 0.996024
13.3646 0.977996
13.3673 0.960173
13.37 0.943258
13.3727 0.928619
13.3754 0.9161
13.3781 0.904748
13.3808 0.895989
13.3835 0.888902
13.3862 0.883271
13.3889 0.879295
13.3916 0.876503
13.3943 0.87416
13.397 0.87226
13.3997 0.870715
13.4024 0.869029
13.4051 0.867792
13.4078 0.866896
13.4105 0.866564
13.4132 0.866473
13.4159 0.866662
13.4186 0.86691
13.4213 0.867157
13.424 0.867585
13.4267 0.867548
13.4294 0.867558
13.4321 0.867486
13.4348 0.867231
13.4375 0.867259
13.4402 0.867105
13.4428 0.867224
13.4455 0.867152
13.4482 0.866902
13.4509 0.866584
13.4536 0.866534
13.4563 0.866385
13.459 0.866647
13.4617 0.867073
13.4644 0.867488
13.4671 0.86818
13.4698 0.869583
13.4725 0.871228
13.4752 0.873234
13.4779 0.875353
13.4806 0.877392
13.4833 0.880183
13.486 0.884415
13.4887 0.889265
13.4914 0.896072
13.4941 0.903971
13.4968 0.913299
13.4995 0.924365
13.5022 0.936066
13.5049 0.947586
13.5076 0.959242
13.5103 0.969254
13.513 0.977673
13.5157 0.983715
13.5184 0.986555
13.5211 0.98569
13.5238 0.981357
13.5265 0.974786
13.5292 0.965358
13.5319 0.954869
13.5346 0.944218
13.5373 0.933505
13.5399 0.923097
13.5426 0.914445
13.5453 0.907807
13.548 0.903199
13.5507 0.900553
13.5534 0.899473
13.5561 0.899762
13.5588 0.901607
13.5615 0.905737
13.5642 0.912253
13.5669 0.921284
13.5696 0.933633
13.5723 0.950079
13.575 0.971578
13.5777 0.99806
13.5804 1.03037
13.5831 1.06739
13.5858 1.10705
13.5885 1.14921
13.5912 1.19102
13.5939 1.22847
13.5966 1.25942
13.5993 1.2811
13.602 1.29163
13.6047 1.29005
13.6074 1.27602
13.6101 1.2518
13.6128 1.21936
13.6155 1.18055
13.6182 1.13959
13.6209 1.0994
13.6236 1.06068
13.6263 1.02655
13.629 0.997365
13.6317 0.972981
13.6343 0.953527
13.637 0.939117
13.6397 0.928204
13.6424 0.920868
13.6451 0.916353
13.6478 0.914498
13.6505 0.915467
13.6532 0.919285
13.6559 0.926077
13.6586 0.936632
13.6613 0.949694
13.664 0.965548
13.6667 0.984772
13.6694 1.00594
13.6721 1.02793
13.6748 1.0502
13.6775 1.07033
13.6802 1.08687
13.6829 1.0987
13.6856 1.10454
13.6883 1.10383
13.691 1.09648
13.6937 1.08346
13.6964 1.06605
13.6991 1.04461
13.7018 1.02231
13.7045 1.00059
13.7072 0.979425
13.7099 0.960823
13.7126 0.945052
13.7153 0.931692
13.718 0.921541
13.7207 0.914534
13.7234 0.909637
13.7261 0.907247
13.7288 0.90747
13.7314 0.909688
13.7341 0.914428
13.7368 0.922438
13.7395 0.933485
13.7422 0.948133
13.7449 0.966683
13.7476 0.988919
13.7503 1.01456
13.753 1.04291
13.7557 1.07212
13.7584 1.10131
13.7611 1.12749
13.7638 1.14883
13.7665 1.16379
13.7692 1.17069
13.7719 1.16925
13.7746 1.15904
13.7773 1.1411
13.78 1.1174
13.7827 1.08881
13.7854 1.05905
13.7881 1.03081
13.7908 1.00422
13.7935 0.980283
13.7962 0.960721
13.7989 0.944139
13.8016 0.930749
13.8043 0.921054
13.807 0.913613
13.8097 0.908532
13.8124 0.905622
13.8151 0.90422
13.8178 0.90457
13.8205 0.907024
13.8232 0.910945
13.8259 0.917058
13.8285 0.925674
13.8312 0.936223
13.8339 0.948541
13.8366 0.961795
13.8393 0.975426
13.842 0.988836
13.8447 1.00079
13.8474 1.00999
13.8501 1.01617
13.8528 1.01832
13.8555 1.01569
13.8582 1.00899
13.8609 0.999131
13.8636 0.986706
13.8663 0.972988
13.869 0.959152
13.8717 0.945648
13.8744 0.933152
13.8771 0.922646
13.8798 0.913979
13.8825 0.906689
13.8852 0.901412
13.8879 0.897631
13.8906 0.894983
13.8933 0.893743
13.896 0.893877
13.8987 0.895617
13.9014 0.899038
13.9041 0.904008
13.9068 0.910821
13.9095 0.919927
13.9122 0.931309
13.9149 0.94521
13.9176 0.960734
13.9203 0.976675
13.923 0.992314
13.9256 1.00641
13.9283 1.01844
13.931 1.02737
13.9337 1.03197
13.9364 1.03215
13.9391 1.02748
13.9418 1.0187
13.9445 1.00712
13.9472 0.99274
13.9499 0.977302
13.9526 0.962683
13.9553 0.94905
13.958 0.937047
13.9607 0.927297
13.9634 0.919679
13.9661 0.914357
13.9688 0.911425
13.9715 0.910412
13.9742 0.911457
13.9769 0.91498
13.9796 0.921284
13.9823 0.931187
13.985 0.945039
13.9877 0.963243
13.9904 0.986714
13.9931 1.01587
13.9958 1.05006
13.9985 1.08924
14.0012 1.13098
14.0039 1.17303
14.0066 1.21317
14.0093 1.24799
14.012 1.2747
14.0147 1.29094
14.0174 1.29555
14.02 1.28701
14.0227 1.26613
14.0254 1.23567
14.0281 1.19807
14.0308 1.15596
14.0335 1.11274
14.0362 1.07201
14.0389 1.03441
14.0416 1.00153
14.0443 0.974607
14.047 0.952283
14.0497 0.934507
14.0524 0.921103
14.0551 0.910869
14.0578 0.903116
14.0605 0.897724
14.0632 0.893321
14.0659 0.88976
14.0686 0.886892
14.0713 0.884162
14.074 0.882082
14.0767 0.880395
14.0794 0.878824
14.0821 0.877886
14.0848 0.877072
14.0875 0.876093
14.0902 0.875159
14.0929 0.874167
14.0956 0.873497
14.0983 0.873162
14.101 0.872988
14.1037 0.872736
14.1064 0.872513
14.1091 0.87264
14.1118 0.872704
14.1145 0.872988
14.1171 0.873951
14.1198 0.874844
14.1225 0.875535
14.1252 0.876255
14.1279 0.876631
14.1306 0.876932
14.1333 0.877345
14.136 0.878046
14.1387 0.879346
14.1414 0.881537
14.1441 0.884685
14.1468 0.888919
14.1495 0.894133
14.1522 0.900281
14.1549 0.907684
14.1576 0.91616
14.1603 0.925882
14.163 0.936626
14.1657 0.947841
14.1684 0.9586
14.1711 0.968071
14.1738 0.975641
14.1765 0.980785
14.1792 0.983268
14.1819 0.982246
14.1846 0.977811
14.1873 0.970938
14.19 0.962254
14.1927 0.952568
14.1954 0.942958
14.1981 0.934158
14.2008 0.92639
14.2035 0.919927
14.2062 0.91533
14.2089 0.912735
14.2116 0.912144
14.2142 0.913962
14.2169 0.91817
14.2196 0.924753
14.2223 0.934529
14.225 0.948037
14.2277 0.966503
14.2304 0.990954
14.2331 1.02288
14.2358 1.06241
14.2385 1.10885
14.2412 1.16152
14.2439 1.2177
14.2466 1.27366
14.2493 1.32613
14.252 1.37172
14.2547 1.40605
14.2574 1.42649
14.2601 1.43134
14.2628 1.41994
14.2655 1.39258
14.2682 1.35182
14.2709 1.30302
14.2736 1.24822
14.2763 1.19247
14.279 1.14096
14.2817 1.09422
14.2844 1.05378
14.2871 1.02106
14.2898 0.995059
14.2925 0.975254
14.2952 0.96179
14.2979 0.953551
14.3006 0.949885
14.3033 0.95053
14.306 0.955824
14.3087 0.966052
14.3113 0.981523
14.314 1.00299
14.3167 1.02977
14.3194 1.06173
14.3221 1.09785
14.3248 1.13641
14.3275 1.17458
14.3302 1.20982
14.3329 1.23885
14.3356 1.25909
14.3383 1.26924
14.341 1.26813
14.3437 1.25536
14.3464 1.23144
14.3491 1.19952
14.3518 1.16255
14.3545 1.123
14.3572 1.08454
14.3599 1.04909
14.3626 1.01727
14.3653 0.990518
14.368 0.969452
14.3707 0.952582
14.3734 0.939768
14.3761 0.930483
14.3788 0.924084
14.3815 0.920487
14.3842 0.919497
14.3869 0.921154
14.3896 0.925101
14.3923 0.931564
14.395 0.940682
14.3977 0.95241
14.4004 0.966221
14.4031 0.981539
14.4057 0.99753
14.4084 1.01216
14.4111 1.0252
14.4138 1.03547
14.4165 1.04137
14.4192 1.04208
14.4219 1.03777
14.4246 1.02952
14.4273 1.01811
14.43 1.00457
14.4327 0.98914
14.4354 0.973308
14.4381 0.958198
14.4408 0.944113
14.4435 0.93126
14.4462 0.920442
14.4489 0.911228
14.4516 0.903974
14.4543 0.898707
14.457 0.894094
14.4597 0.890515
14.4624 0.88847
14.4651 0.886989
14.4678 0.885785
14.4705 0.884743
14.4732 0.883291
14.4759 0.882411
14.4786 0.881619
14.4813 0.880754
14.484 0.880543
14.4867 0.880676
14.4894 0.881078
14.4921 0.881771
14.4948 0.882182
14.4975 0.88235
14.5002 0.882339
14.5028 0.882359
14.5055 0.882323
14.5082 0.882477
14.5109 0.883152
14.5136 0.883671
14.5163 0.884377
14.519 0.884983
14.5217 0.885533
14.5244 0.886294
14.5271 0.887194
14.5298 0.888886
14.5325 0.891521
14.5352 0.894842
14.5379 0.899354
14.5406 0.904999
14.5433 0.912582
14.546 0.922866
14.5487 0.935789
14.5514 0.952006
14.5541 0.971962
14.5568 0.994957
14.5595 1.02056
14.5622 1.04723
14.5649 1.07304
14.5676 1.09645
14.5703 1.11572
14.573 1.12929
14.5757 1.13547
14.5784 1.13444
14.5811 1.12606
14.5838 1.11036
14.5865 1.0894
14.5892 1.0648
14.5919 1.03836
14.5946 1.01316
14.5973 0.99126
14.5999 0.971698
14.6026 0.955834
14.6053 0.943914
14.608 0.934676
14.6107 0.92865
14.6134 0.925684
14.6161 0.925918
14.6188 0.930333
14.6215 0.938366
14.6242 0.950371
14.6269 0.967115
14.6296 0.988879
14.6323 1.01629
14.635 1.04828
14.6377 1.08382
14.6404 1.12199
14.6431 1.15862
14.6458 1.19202
14.6485 1.21985
14.6512 1.23933
14.6539 1.24832
14.6566 1.24602
14.6593 1.2323
14.662 1.2089
14.6647 1.17778
14.6674 1.14184
14.6701 1.1037
14.6728 1.06651
14.6755 1.03248
14.6782 1.00289
14.6809 0.976747
14.6836 0.956199
14.6863 0.939582
14.689 0.926487
14.6917 0.916576
14.6943 0.908597
14.697 0.902923
14.6997 0.898773
14.7024 0.895288
14.7051 0.892836
14.7078 0.890982
14.7105 0.889143
14.7132 0.88818
14.7159 0.887922
14.7186 0.887381
14.7213 0.887294
14.724 0.887171
14.7267 0.886285
14.7294 0.886284
14.7321 0.885587
14.7348 0.885365
14.7375 0.885145
14.7402 0.884595
14.7429 0.885073
14.7456 0.885447
14.7483 0.885965
14.751 0.886503
14.7537 0.886257
14.7564 0.885731
14.7591 0.885776
14.7618 0.88582
14.7645 0.886231
14.7672 0.887112
14.7699 0.888412
14.7726 0.889814
14.7753 0.891949
14.778 0.894046
14.7807 0.897091
14.7834 0.900559
14.7861 0.904871
14.7888 0.910616
14.7914 0.917207
14.7941 0.92468
14.7968 0.93241
14.7995 0.939889
14.8022 0.946007
14.8049 0.950606
14.8076 0.953359
14.8103 0.953872
14.813 0.95272
14.8157 0.949864
14.8184 0.945574
14.8211 0.939597
14.8238 0.932844
14.8265 0.925676
14.8292 0.919301
14.8319 0.913988
14.8346 0.909503
14.8373 0.906355
14.84 0.904292
14.8427 0.903164
14.8454 0.902873
14.8481 0.90416
14.8508 0.905876
14.8535 0.908799
14.8562 0.91293
14.8589 0.918338
14.8616 0.925936
14.8643 0.935339
14.867 0.946952
14.8697 0.959998
14.8724 0.973711
14.8751 0.987222
14.8778 0.999691
14.8805 1.0106
14.8832 1.0189
14.8859 1.02315
14.8885 1.02351
14.8912 1.01991
14.8939 1.01288
14.8966 1.00243
14.8993 0.989732
14.902 0.975814
14.9047 0.961708
14.9074 0.949167
14.9101 0.938893
14.9128 0.930653
14.9155 0.924964
14.9182 0.921742
14.9209 0.920328
14.9236 0.921037
14.9263 0.9241
14.929 0.929727
14.9317 0.938394
14.9344 0.950393
14.9371 0.966418
14.9398 0.986753
14.9425 1.01136
14.9452 1.03976
14.9479 1.06992
14.9506 1.1006
14.9533 1.12964
14.956 1.15486
14.9587 1.17415
14.9614 1.18558
14.9641 1.18783
14.9668 1.181
14.9695 1.16571
14.9722 1.14286
14.9749 1.11474
14.9776 1.08445
14.9803 1.05386
14.983 1.02545
14.9856 1.00051
14.9883 0.979649
14.991 0.963081
14.9937 0.950264
14.9964 0.941078
14.9991 0.935143
15.0018 0.931876
15.0045 0.931154
15.0072 0.932838
15.0099 0.937289
15.0126 0.944879
15.0153 0.955554
15.018 0.969505
15.0207 0.986189
15.0234 1.00513
15.0261 1.02472
15.0288 1.04364
15.0315 1.05986
15.0342 1.07298
15.0369 1.08124
15.0396 1.08365
15.0423 1.08073
15.045 1.072
15.0477 1.05802
15.0504 1.04076
15.0531 1.02203
15.0558 1.0023
15.0585 0.983522
15.0612 0.966374
15.0639 0.951743
15.0666 0.940089
15.0693 0.931527
15.072 0.925
15.0747 0.920881
15.0774 0.918587
15.08 0.91773
15.0827 0.918704
15.0854 0.921313
15.0881 0.925541
15.0908 0.931165
15.0935 0.938171
15.0962 0.947029
15.0989 0.957115
15.1016 0.967501
15.1043 0.978168
15.107 0.987388
15.1097 0.995875
15.1124 1.00154
15.1151 1.00378
15.1178 1.00287
15.1205 0.998337
15.1232 0.991561
15.1259 0.983417
15.1286 0.973951
15.1313 0.964022
15.134 0.954495
15.1367 0.946669
15.1394 0.940709
15.1421 0.936531
15.1448 0.934446
15.1475 0.934079
15.1502 0.935909
15.1529 0.940133
15.1556 0.947687
15.1583 0.959639
15.161 0.976656
15.1637 0.99933
15.1664 1.02726
15.1691 1.06213
15.1718 1.10285
15.1745 1.14848
15.1771 1.19604
15.1798 1.2423
15.1825 1.28225
15.1852 1.316
15.1879 1.33769
15.1906 1.34616
15.1933 1.3397
15.196 1.31977
15.1987 1.288
15.2014 1.24673
15.2041 1.20157
15.2068 1.15475
15.2095 1.11131
15.2122 1.07243
15.2149 1.03866
15.2176 1.01118
15.2203 0.989896
15.223 0.973368
15.2257 0.962041
15.2284 0.954227
15.2311 0.94945
15.2338 0.94765
15.2365 0.948404
15.2392 0.951792
15.2419 0.957578
15.2446 0.966276
15.2473 0.977612
15.25 0.990972
15.2527 1.00565
15.2554 1.02022
15.2581 1.03296
15.2608 1.04311
15.2635 1.04947
15.2662 1.05129
15.2689 1.04868
15.2716 1.04143
15.2742 1.03008
15.2769 1.01622
15.2796 1.00098
15.2823 0.985579
15.285 0.971064
15.2877 0.958224
15.2904 0.946497
15.2931 0.937246
15.2958 0.929646
15.2985 0.923332
15.3012 0.918447
15.3039 0.914637
15.3066 0.911858
15.3093 0.909671
15.312 0.907534
15.3147 0.906121
15.3174 0.904986
15.3201 0.90404
15.3228 0.903748
15.3255 0.903089
15.3282 0.902314
15.3309 0.902013
15.3336 0.901781
15.3363 0.901747
15.339 0.90214
15.3417 0.902652
15.3444 0.902975
15.3471 0.90373
15.3498 0.904472
15.3525 0.904828
15.3552 0.905282
15.3579 0.905568
15.3606 0.906063
15.3633 0.907043
15.366 0.908747
15.3687 0.910794
15.3713 0.912499
15.374 0.914541
15.3767 0.917293
15.3794 0.921362
15.3821 0.926703
15.3848 0.933267
15.3875 0.942045
15.3902 0.953213
15.3929 0.966668
15.3956 0.982422
15.3983 0.999587
15.401 1.01801
15.4037 1.03652
15.4064 1.05291
15.4091 1.06666
15.4118 1.07603
15.4145 1.08019
15.4172 1.07877
15.4199 1.0716
15.4226 1.05939
15.4253 1.04454
15.428 1.02765
15.4307 1.0098
15.4334 0.993225
15.4361 0.978423
15.4388 0.966066
15.4415 0.956243
15.4442 0.949289
15.4469 0.945379
15.4496 0.943855
15.4523 0.94481
15.455 0.948446
15.4577 0.955686
15.4604 0.966975
15.4631 0.981544
15.4657 1.00045
15.4684 1.02345
15.4711 1.04987
15.4738 1.07861
15.4765 1.10793
15.4792 1.13542
15.4819 1.15957
15.4846 1.17732
15.4873 1.187
15.49 1.18849
15.4927 1.18078
15.4954 1.16527
15.4981 1.14219
15.5008 1.11512
15.5035 1.08556
15.5062 1.05637
15.5089 1.03017
15.5116 1.00718
15.5143 0.989013
15.517 0.974899
15.5197 0.964063
15.5224 0.957405
15.5251 0.953708
15.5278 0.952624
15.5305 0.954115
15.5332 0.958058
15.5359 0.965347
15.5386 0.976039
15.5413 0.989809
15.544 1.00612
15.5467 1.02448
15.5494 1.0438
15.5521 1.06272
15.5548 1.08002
15.5575 1.09373
15.5602 1.10213
15.5628 1.10473
15.5655 1.10129
15.5682 1.09155
15.5709 1.07665
15.5736 1.05851
15.5763 1.03849
15.579 1.01879
15.5817 1.00029
15.5844 0.983951
15.5871 0.970847
15.5898 0.96061
15.5925 0.953004
15.5952 0.947948
15.5979 0.945523
15.6006 0.945759
15.6033 0.948836
15.606 0.954298
15.6087 0.962037
15.6114 0.972015
15.6141 0.98498
15.6168 1.00055
15.6195 1.01862
15.6222 1.03821
15.6249 1.05787
15.6276 1.07588
15.6303 1.09066
15.633 1.10051
15.6357 1.10399
15.6384 1.10096
15.6411 1.09148
15.6438 1.07723
15.6465 1.05972
15.6492 1.03989
15.6519 1.02004
15.6546 1.00153
15.6573 0.985024
15.6599 0.971921
15.6626 0.961036
15.6653 0.952505
15.668 0.946284
15.6707 0.942081
15.6734 0.939454
15.6761 0.93799
15.6788 0.938539
15.6815 0.940565
15.6842 0.944095
15.6869 0.949186
15.6896 0.955383
15.6923 0.962125
15.695 0.96969
15.6977 0.977439
15.7004 0.984895
15.7031 0.990531
15.7058 0.994172
15.7085 0.995259
15.7112 0.994361
15.7139 0.99133
15.7166 0.985635
15.7193 0.978799
15.722 0.97084
15.7247 0.963375
15.7274 0.956791
15.7301 0.950917
15.7328 0.946184
15.7355 0.942429
15.7382 0.940092
15.7409 0.938798
15.7436 0.938198
15.7463 0.939111
15.749 0.941229
15.7517 0.945078
15.7543 0.951024
15.757 0.958812
15.7597 0.969006
15.7624 0.980894
15.7651 0.994553
15.7678 1.0094
15.7705 1.02374
15.7732 1.0371
15.7759 1.04718
15.7786 1.05347
15.7813 1.05573
15.784 1.05355
15.7867 1.04767
15.7894 1.03888
15.7921 1.02757
15.7948 1.0146
15.7975 1.00159
15.8002 0.989355
15.8029 0.978953
15.8056 0.970818
15.8083 0.964326
15.811 0.960332
15.8137 0.958955
15.8164 0.960304
15.8191 0.964085
15.8218 0.971109
15.8245 0.981748
15.8272 0.996912
15.8299 1.01782
15.8326 1.04356
15.8353 1.07406
15.838 1.10782
15.8407 1.1424
15.8434 1.17594
15.8461 1.20525
15.8488 1.22768
15.8514 1.24159
15.8541 1.24479
15.8568 1.23635
15.8595 1.21851
15.8622 1.19231
15.8649 1.16074
15.8676 1.12667
15.8703 1.09256
15.873 1.06062
15.8757 1.03339
15.8784 1.01048
15.8811 0.992261
15.8838 0.978247
15.8865 0.966896
15.8892 0.958723
15.8919 0.952714
15.8946 0.948149
15.8973 0.944602
15.9 0.941644
15.9027 0.939632
15.9054 0.937733
15.9081 0.936081
15.9108 0.935068
15.9135 0.933891
15.9162 0.933423
15.9189 0.9323
15.9216 0.931459
15.9243 0.931095
15.927 0.930656
15.9297 0.930672
15.9324 0.931131
15.9351 0.931669
15.9378 0.932017
15.9405 0.931336
15.9432 0.930365
15.9459 0.929765
15.9485 0.929249
15.9512 0.929317
15.9539 0.929734
15.9566 0.9301
15.9593 0.930005
15.962 0.929986
15.9647 0.929708
15.9674 0.929306
15.9701 0.929321
15.9728 0.929769
15.9755 0.930176
15.9782 0.930245
15.9809 0.930329
15.9836 0.930713
15.9863 0.931176
15.989 0.931488
15.9917 0.931547
15.9944 0.932089
15.9971 0.932644
15.9998 0.932556
16.0025 0.932297
16.0052 0.931848
16.0079 0.931491
16.0106 0.931639
16.0133 0.932558
16.016 0.933882
16.0187 0.935169
16.0214 0.936163
16.0241 0.937031
16.0268 0.938432
16.0295 0.940649
16.0322 0.943962
16.0349 0.948126
16.0376 0.953534
16.0403 0.960343
16.043 0.969901
16.0456 0.982632
16.0483 0.997613
16.051 1.01467
16.0537 1.03264
16.0564 1.0521
16.0591 1.06969
16.0618 1.08523
16.0645 1.09623
16.0672 1.10278
16.0699 1.10395
16.0726 1.09828
16.0753 1.08746
16.078 1.07212
16.0807 1.05513
16.0834 1.03652
16.0861 1.01902
16.0888 1.00328
16.0915 0.990639
16.0942 0.981084
16.0969 0.973396
16.0996 0.968767
16.1023 0.966189
16.105 0.966202
16.1077 0.968878
16.1104 0.973936
16.1131 0.982273
16.1158 0.993342
16.1185 1.00756
16.1212 1.02412
16.1239 1.04277
16.1266 1.06282
16.1293 1.08151
16.132 1.09878
16.1347 1.11193
16.1374 1.11983
16.14 1.12176
16.1427 1.11723
16.1454 1.1068
16.1481 1.09203
16.1508 1.07375
16.1535 1.05424
16.1562 1.03517
16.1589 1.01758
16.1616 1.00231
16.1643 0.989834
16.167 0.980101
16.1697 0.972715
16.1724 0.967981
16.1751 0.965668
16.1778 0.965235
16.1805 0.966582
16.1832 0.969805
16.1859 0.975097
16.1886 0.98221
16.1913 0.990836
16.194 1.00097
16.1967 1.01196
16.1994 1.02278
16.2021 1.03252
16.2048 1.04041
16.2075 1.04551
16.2102 1.04821
16.2129 1.04703
16.2156 1.04229
16.2183 1.03469
16.221 1.02522
16.2237 1.01496
16.2264 1.00474
16.2291 0.994451
16.2318 0.985419
16.2345 0.977212
16.2371 0.97097
16.2398 0.966794
16.2425 0.965177
16.2452 0.964781
16.2479 0.967461
16.2506 0.972058
16.2533 0.979305
16.256 0.989103
16.2587 1.00094
16.2614 1.01466
16.2641 1.03043
16.2668 1.04714
16.2695 1.06447
16.2722 1.08032
16.2749 1.09303
16.2776 1.10198
16.2803 1.10588
16.283 1.10407
16.2857 1.09726
16.2884 1.08575
16.2911 1.07091
16.2938 1.05423
16.2965 1.03705
16.2992 1.02186
16.3019 1.00878
16.3046 0.997951
16.3073 0.989927
16.31 0.984274
16.3127 0.981018
16.3154 0.980423
16.3181 0.982427
16.3208 0.987067
16.3235 0.994981
16.3262 1.00672
16.3289 1.02252
16.3316 1.04242
16.3342 1.06542
16.3369 1.08924
16.3396 1.11255
16.3423 1.13399
16.345 1.15145
16.3477 1.16353
16.3504 1.16808
16.3531 1.16509
16.3558 1.15464
16.3585 1.13791
16.3612 1.1168
16.3639 1.09331
16.3666 1.06953
16.3693 1.04788
16.372 1.02812
16.3747 1.0128
16.3774 1.00094
16.3801 0.992914
16.3828 0.988117
16.3855 0.984871
16.3882 0.984608
16.3909 0.985647
16.3936 0.990442
16.3963 0.99779
16.399 1.00822
16.4017 1.02217
16.4044 1.03838
16.4071 1.05572
16.4098 1.07201
16.4125 1.086
16.4152 1.09648
16.4179 1.10302
16.4206 1.10495
16.4233 1.10183
16.426 1.09316
16.4286 1.08074
16.4313 1.06561
16.434 1.04856
16.4367 1.03184
16.4394 1.01586
16.4421 1.00224
16.4448 0.991154
16.4475 0.981905
16.4502 0.97502
16.4529 0.96949
16.4556 0.965636
16.4583 0.962301
16.461 0.959433
16.4637 0.957256
16.4664 0.955794
16.4691 0.955156
16.4718 0.954903
16.4745 0.954648
16.4772 0.954451
16.4799 0.953693
16.4826 0.953077
16.4853 0.952729
16.488 0.952469
16.4907 0.952439
16.4934 0.952288
16.4961 0.952858
16.4988 0.95293
16.5015 0.953103
16.5042 0.952912
16.5069 0.952971
16.5096 0.953212
16.5123 0.953439
16.515 0.954243
16.5177 0.955326
16.5204 0.956739
16.5231 0.958235
16.5257 0.959978
16.5284 0.962474
16.5311 0.965961
16.5338 0.971164
16.5365 0.978488
16.5392 0.987211
16.5419 0.997887
16.5446 1.00876
16.5473 1.02061
16.55 1.0309
16.5527 1.03909
16.5554 1.04474
16.5581 1.04767
16.5608 1.04651
16.5635 1.04235
16.5662 1.03522
16.5689 1.02627
16.5716 1.01689
16.5743 1.00689
16.577 0.998002
16.5797 0.990582
16.5824 0.98395
16.5851 0.978283
16.5878 0.973959
16.5905 0.971697
16.5932 0.971129
16.5959 0.972132
16.5986 0.974743
16.6013 0.979628
16.604 0.987101
16.6067 0.997182
16.6094 1.00957
16.6121 1.02339
16.6148 1.03775
16.6175 1.05156
16.6202 1.06447
16.6228 1.07507
16.6255 1.08168
16.6282 1.08342
16.6309 1.08021
16.6336 1.07277
16.6363 1.062
16.639 1.04893
16.6417 1.03461
16.6444 1.02095
16.6471 1.00851
16.6498 0.998382
16.6525 0.990572
16.6552 0.984236
16.6579 0.980139
16.6606 0.97849
16.6633 0.97989
16.666 0.983853
16.6687 0.990815
16.6714 1.00082
16.6741 1.01471
16.6768 1.03169
16.6795 1.05171
16.6822 1.0741
16.6849 1.0959
16.6876 1.11702
16.6903 1.13458
16.693 1.14751
16.6957 1.15353
16.6984 1.15195
16.7011 1.14268
16.7038 1.12791
16.7065 1.10849
16.7092 1.08705
16.7119 1.06487
16.7146 1.04381
16.7173 1.0254
16.7199 1.01003
16.7226 0.99757
16.7253 0.987826
16.728 0.980389
16.7307 0.975609
16.7334 0.973233
16.7361 0.973248
16.7388 0.975335
16.7415 0.979377
16.7442 0.984911
16.7469 0.991925
16.7496 1.00008
16.7523 1.00891
16.755 1.01748
16.7577 1.02472
16.7604 1.03061
16.7631 1.03404
16.7658 1.03491
16.7685 1.03247
16.7712 1.02677
16.7739 1.01894
16.7766 1.00996
16.7793 1.00068
16.782 0.991729
16.7847 0.983665
16.7874 0.977209
16.7901 0.971393
16.7928 0.966167
16.7955 0.961594
16.7982 0.958387
16.8009 0.955673
16.8036 0.953612
16.8063 0.952519
16.809 0.952012
16.8117 0.951578
16.8143 0.951335
16.817 0.951455
16.8197 0.951317
16.8224 0.950756
16.8251 0.95048
16.8278 0.950475
16.8305 0.950444
16.8332 0.950351
16.8359 0.950988
16.8386 0.951826
16.8413 0.953243
16.844 0.954067
16.8467 0.954365
16.8494 0.954463
16.8521 0.954762
16.8548 0.955251
16.8575 0.956015
16.8602 0.957524
16.8629 0.95997
16.8656 0.963325
16.8683 0.968001
16.871 0.975147
16.8737 0.984934
16.8764 0.997995
16.8791 1.01518
16.8818 1.03627
16.8845 1.06026
16.8872 1.08518
16.8899 1.11011
16.8926 1.13306
16.8953 1.15104
16.898 1.1629
16.9007 1.16663
16.9034 1.1618
16.9061 1.15038
16.9088 1.13263
16.9114 1.11186
16.9141 1.08795
16.9168 1.064
16.9195 1.04215
16.9222 1.02317
16.9249 1.00859
16.9276 0.997339
16.9303 0.989595
16.933 0.985584
16.9357 0.985137
16.9384 0.988061
16.9411 0.994061
16.9438 1.00452
16.9465 1.01902
16.9492 1.03807
16.9519 1.05993
16.9546 1.0837
16.9573 1.10739
16.96 1.1287
16.9627 1.14573
16.9654 1.15694
16.9681 1.16084
16.9708 1.15701
16.9735 1.14566
16.9762 1.12825
16.9789 1.10625
16.9816 1.0816
16.9843 1.05701
16.987 1.03412
16.9897 1.01483
16.9924 0.999268
16.9951 0.987163
16.9978 0.977633
17.0005 0.970165
17.0032 0.964535
17.0059 0.960248
17.0085 0.95711
17.0112 0.955093
17.0139 0.953785
17.0166 0.952917
17.0193 0.951475
17.022 0.950589
17.0247 0.949527
17.0274 0.949004
17.0301 0.948601
17.0328 0.947797
17.0355 0.947552
17.0382 0.947104
17.0409 0.947196
17.0436 0.946502
17.0463 0.945538
17.049 0.945184
17.0517 0.945869
17.0544 0.946488
17.0571 0.946731
17.0598 0.946998
17.0625 0.947349
17.0652 0.94739
17.0679 0.947425
17.0706 0.947555
17.0733 0.947839
17.076 0.948586
17.0787 0.949521
17.0814 0.951289
17.0841 0.953751
17.0868 0.956109
17.0895 0.957929
17.0922 0.959729
17.0949 0.961162
17.0976 0.962167
17.1003 0.962392
17.103 0.962513
17.1056 0.962474
17.1083 0.961794
17.111 0.960527
17.1137 0.958524
17.1164 0.956628
17.1191 0.954849
17.1218 0.953541
17.1245 0.953428
17.1272 0.953783
17.1299 0.955133
17.1326 0.957017
17.1353 0.960967
17.138 0.966807
17.1407 0.974405
17.1434 0.985592
17.1461 1.00199
17.1488 1.02317
17.1515 1.04889
17.1542 1.07635
17.1569 1.10445
17.1596 1.13215
17.1623 1.15585
17.165 1.1735
17.1677 1.1837
17.1704 1.18475
17.1731 1.17698
17.1758 1.16116
17.1785 1.13915
17.1812 1.11394
17.1839 1.08683
17.1866 1.06065
17.1893 1.03734
17.192 1.01815
17.1947 1.00315
17.1974 0.990934
17.2 0.981916
17.2027 0.975809
17.2054 0.972665
17.2081 0.971912
17.2108 0.974033
17.2135 0.978612
17.2162 0.985399
17.2189 0.993477
17.2216 1.00281
17.2243 1.01262
17.227 1.02196
17.2297 1.02906
17.2324 1.03386
17.2351 1.03578
17.2378 1.03482
17.2405 1.03022
17.2432 1.02325
17.2459 1.01418
17.2486 1.00449
17.2513 0.994393
17.254 0.984965
17.2567 0.977381
17.2594 0.971366
17.2621 0.967377
17.2648 0.965256
17.2675 0.965129
17.2702 0.967116
17.2729 0.97098
17.2756 0.977825
17.2783 0.987133
17.281 0.999346
17.2837 1.01531
17.2864 1.0345
17.2891 1.05486
17.2918 1.075
17.2945 1.09318
17.2971 1.10792
17.2998 1.11795
17.3025 1.1219
17.3052 1.1185
17.3079 1.10751
17.3106 1.09138
17.3133 1.07217
17.316 1.05151
17.3187 1.03172
17.3214 1.01368
17.3241 0.999064
17.3268 0.987327
17.3295 0.978097
17.3322 0.971166
17.3349 0.966441
17.3376 0.963881
17.3403 0.963367
17.343 0.964823
17.3457 0.967584
17.3484 0.970687
17.3511 0.975141
17.3538 0.98112
17.3565 0.988186
17.3592 0.994582
17.3619 1.00007
17.3646 1.00377
17.3673 1.00607
17.37 1.00616
17.3727 1.00397
17.3754 0.999722
17.3781 0.993289
17.3808 0.986227
17.3835 0.978446
17.3862 0.97118
17.3889 0.964828
17.3916 0.95986
17.3942 0.956487
17.3969 0.954431
17.3996 0.9534
17.4023 0.953225
17.405 0.954041
17.4077 0.955709
17.4104 0.958351
17.4131 0.962499
17.4158 0.968462
17.4185 0.975735
17.4212 0.982568
17.4239 0.98904
17.4266 0.995113
17.4293 1.00126
17.432 1.00418
17.4347 1.00449
17.4374 1.00148
17.4401 0.996946
17.4428 0.991087
17.4455 0.984425
17.4482 0.978841
17.4509 0.973157
17.4536 0.968592
17.4563 0.963766
17.459 0.959875
17.4617 0.958705
17.4644 0.960068
17.4671 0.96391
17.4698 0.970103
17.4725 0.979915
17.4752 0.993337
17.4779 1.01076
17.4806 1.03222
17.4833 1.05786
17.486 1.08562
17.4886 1.11272
17.4913 1.13712
17.494 1.1564
17.4967 1.16908
17.4994 1.17294
17.5021 1.16763
17.5048 1.15406
17.5075 1.13392
17.5102 1.10932
17.5129 1.08259
17.5156 1.05664
17.5183 1.03254
17.521 1.0123
17.5237 0.99595
17.5264 0.982956
17.5291 0.973192
17.5318 0.96526
17.5345 0.959156
17.5372 0.953995
17.5399 0.950386
17.5426 0.947697
17.5453 0.946472
17.548 0.94546
17.5507 0.94443
17.5534 0.943737
17.5561 0.942531
17.5588 0.94189
17.5615 0.941621
17.5642 0.942267
17.5669 0.942125
17.5696 0.941531
17.5723 0.941873
17.575 0.942786
17.5777 0.943573
17.5804 0.943211
17.5831 0.942368
17.5857 0.941476
17.5884 0.941042
17.5911 0.94071
17.5938 0.941463
17.5965 0.943406
17.5992 0.946099
17.6019 0.948848
17.6046 0.952164
17.6073 0.956892
17.61 0.96342
17.6127 0.971782
17.6154 0.980603
17.6181 0.989737
17.6208 0.998382
17.6235 1.006
17.6262 1.01109
17.6289 1.01354
17.6316 1.01306
17.6343 1.00939
17.637 1.00374
17.6397 0.996362
17.6424 0.98809
17.6451 0.979745
17.6478 0.972122
17.6505 0.966098
17.6532 0.961126
17.6559 0.957886
17.6586 0.956151
17.6613 0.956029
17.664 0.95689
17.6667 0.959209
17.6694 0.962929
17.6721 0.968882
17.6748 0.977271
17.6775 0.988057
17.6802 1.00036
17.6828 1.01297
17.6855 1.0249
17.6882 1.03514
17.6909 1.04279
17.6936 1.04615
17.6963 1.04575
17.699 1.04097
17.7017 1.03257
17.7044 1.02215
17.7071 1.01008
17.7098 0.998827
17.7125 0.987653
17.7152 0.978914
17.7179 0.970131
17.7206 0.964685
17.7233 0.960527
17.726 0.958884
17.7287 0.958318
17.7314 0.960152
17.7341 0.96322
17.7368 0.969041
17.7395 0.976896
17.7422 0.987312
17.7449 0.998544
17.7476 1.01024
17.7503 1.0207
17.753 1.02995
17.7557 1.03665
17.7584 1.03966
17.7611 1.03846
17.7638 1.03388
17.7665 1.0259
17.7692 1.01504
17.7719 1.00279
17.7746 0.991023
17.7773 0.980738
17.7799 0.972272
17.7826 0.965352
17.7853 0.959752
17.788 0.95496
17.7907 0.952059
17.7934 0.951812
17.7961 0.953518
17.7988 0.956505
17.8015 0.959828
17.8042 0.96517
17.8069 0.972009
17.8096 0.980553
17.8123 0.988789
17.815 0.996286
17.8177 1.00281
17.8204 1.00677
17.8231 1.00936
17.8258 1.00835
17.8285 1.0055
17.8312 0.999254
17.8339 0.991858
17.8366 0.983635
17.8393 0.976355
17.842 0.969361
17.8447 0.962962
17.8474 0.958602
17.8501 0.955917
17.8528 0.954306
17.8555 0.953819
17.8582 0.954346
17.8609 0.955347
17.8636 0.957281
17.8663 0.961495
17.869 0.967709
17.8717 0.974644
17.8743 0.981696
17.877 0.988227
17.8797 0.994824
17.8824 1.00008
17.8851 1.00359
17.8878 1.00465
17.8905 1.00341
17.8932 1.00025
17.8959 0.994188
17.8986 0.987663
17.9013 0.981271
17.904 0.975781
17.9067 0.970437
17.9094 0.965613
17.9121 0.961809
17.9148 0.959744
17.9175 0.959046
17.9202 0.959321
17.9229 0.961455
17.9256 0.965785
17.9283 0.972588
17.931 0.981817
17.9337 0.992684
17.9364 1.00458
17.9391 1.01724
17.9418 1.03032
17.9445 1.04233
17.9472 1.05105
17.9499 1.05543
17.9526 1.05495
17.9553 1.05007
17.958 1.04126
17.9607 1.02955
17.9634 1.01683
17.9661 1.00344
17.9688 0.991707
17.9714 0.981168
17.9741 0.973419
17.9768 0.966773
17.9795 0.962735
17.9822 0.960487
17.9849 0.959488
17.9876 0.95923
17.9903 0.959871
17.993 0.960728
17.9957 0.962711
17.9984 0.965827
18.0011 0.969869
18.0038 0.974257
18.0065 0.978504
18.0092 0.982635
18.0119 0.985787
18.0146 0.986988
18.0173 0.986051
18.02 0.984209
18.0227 0.981456
18.0254 0.977427
18.0281 0.972346
18.0308 0.967281
18.0335 0.962874
18.0362 0.958802
18.0389 0.95526
18.0416 0.952043
18.0443 0.949839
18.047 0.948206
18.0497 0.946489
18.0524 0.945415
18.0551 0.94524
18.0578 0.945319
18.0605 0.945598
18.0632 0.945895
18.0659 0.945768
18.0685 0.945802
18.0712 0.94563
18.0739 0.945384
18.0766 0.944903
18.0793 0.944924
18.082 0.944849
18.0847 0.945343
18.0874 0.945715
18.0901 0.946016
18.0928 0.946379
18.0955 0.947054
18.0982 0.94757
18.1009 0.947853
18.1036 0.947874
18.1063 0.947878
18.109 0.948267
18.1117 0.949163
18.1144 0.950861
18.1171 0.952409
18.1198 0.954412
18.1225 0.955781
18.1252 0.958164
18.1279 0.960924
18.1306 0.964858
18.1333 0.968764
18.136 0.972108
18.1387 0.973944
18.1414 0.974754
18.1441 0.975256
18.1468 0.97361
18.1495 0.971216
18.1522 0.968008
18.1549 0.964748
18.1576 0.961746
18.1603 0.959415
18.163 0.957866
18.1656 0.957187
18.1683 0.95733
18.171 0.9577
18.1737 0.957558
18.1764 0.958492
18.1791 0.961656
18.1818 0.967089
18.1845 0.974407
18.1872 0.983188
18.1899 0.993033
18.1926 1.00358
18.1953 1.01293
18.198 1.02156
18.2007 1.02824
18.2034 1.03242
18.2061 1.03433
18.2088 1.03083
18.2115 1.02445
18.2142 1.01551
18.2169 1.00593
18.2196 0.996406
18.2223 0.988176
18.225 0.981336
18.2277 0.976064
18.2304 0.973014
18.2331 0.972072
18.2358 0.973053
18.2385 0.976547
18.2412 0.983053
18.2439 0.99305
18.2466 1.00648
18.2493 1.02377
18.252 1.04439
18.2547 1.06658
18.2574 1.08862
18.26 1.10881
18.2627 1.12499
18.2654 1.13472
18.2681 1.13686
18.2708 1.13095
18.2735 1.11846
18.2762 1.09995
18.2789 1.07825
18.2816 1.05599
18.2843 1.035
18.287 1.01708
18.2897 1.00277
18.2924 0.992157
18.2951 0.983759
18.2978 0.977407
18.3005 0.973306
18.3032 0.971571
18.3059 0.972349
18.3086 0.975637
18.3113 0.98087
18.314 0.987555
18.3167 0.994824
18.3194 1.00227
18.3221 1.00949
18.3248 1.01574
18.3275 1.02044
18.3302 1.02257
18.3329 1.02159
18.3356 1.01753
18.3383 1.01095
18.341 1.00322
18.3437 0.994413
18.3464 0.986223
18.3491 0.979322
18.3518 0.973547
18.3545 0.968033
18.3571 0.964365
18.3598 0.961896
18.3625 0.96087
18.3652 0.959996
18.3679 0.960126
18.3706 0.960432
18.3733 0.961166
18.376 0.962989
18.3787 0.965748
18.3814 0.969254
18.3841 0.972925
18.3868 0.976598
18.3895 0.979245
18.3922 0.980531
18.3949 0.979976
18.3976 0.978288
18.4003 0.975762
18.403 0.972975
18.4057 0.970143
18.4084 0.967976
18.4111 0.966441
18.4138 0.966445
18.4165 0.967576
18.4192 0.968635
18.4219 0.970641
18.4246 0.974508
18.4273 0.981595
18.43 0.990593
18.4327 1.00323
18.4354 1.01978
18.4381 1.03872
18.4408 1.05983
18.4435 1.0812
18.4462 1.10137
18.4489 1.11803
18.4516 1.12923
18.4542 1.13282
18.4569 1.12821
18.4596 1.11706
18.4623 1.10155
18.465 1.08338
18.4677 1.06359
18.4704 1.04394
18.4731 1.02607
18.4758 1.01051
18.4785 0.99815
18.4812 0.98893
18.4839 0.98351
18.4866 0.980463
18.4893 0.980623
18.492 0.983595
18.4947 0.989835
18.4974 0.998585
18.5001 1.0092
18.5028 1.02167
18.5055 1.03483
18.5082 1.04651
18.5109 1.0554
18.5136 1.06082
18.5163 1.06304
18.519 1.0608
18.5217 1.05412
18.5244 1.04445
18.5271 1.03273
18.5298 1.02077
18.5325 1.00906
18.5352 0.99841
18.5379 0.988754
18.5406 0.980721
18.5433 0.974567
18.546 0.969732
18.5486 0.965767
18.5513 0.963553
18.554 0.962347
18.5567 0.961357
18.5594 0.960058
18.5621 0.959064
18.5648 0.958781
18.5675 0.958559
18.5702 0.958341
18.5729 0.958352
18.5756 0.957634
18.5783 0.957059
18.581 0.957964
18.5837 0.95902
18.5864 0.960011
18.5891 0.960903
18.5918 0.962245
18.5945 0.963151
18.5972 0.963298
18.5999 0.963312
18.6026 0.963491
18.6053 0.964102
18.608 0.965098
18.6107 0.966612
18.6134 0.969067
18.6161 0.972737
18.6188 0.977894
18.6215 0.984797
18.6242 0.992934
18.6269 1.00079
18.6296 1.00788
18.6323 1.01584
18.635 1.02201
18.6377 1.02603
18.6404 1.02614
18.6431 1.02386
18.6457 1.01867
18.6484 1.01226
18.6511 1.00423
18.6538 0.996333
18.6565 0.988793
18.6592 0.982544
18.6619 0.977774
18.6646 0.974919
18.6673 0.973627
18.67 0.973125
18.6727 0.974395
18.6754 0.97808
18.6781 0.984943
18.6808 0.995181
18.6835 1.00774
18.6862 1.02197
18.6889 1.03775
18.6916 1.0533
18.6943 1.06681
18.697 1.07686
18.6997 1.08175
18.7024 1.082
18.7051 1.07636
18.7078 1.06618
18.7105 1.05265
18.7132 1.03797
18.7159 1.02315
18.7186 1.0103
18.7213 0.999063
18.724 0.989878
18.7267 0.983239
18.7294 0.979364
18.7321 0.977697
18.7348 0.977956
18.7375 0.979775
18.7402 0.983394
18.7428 0.989231
18.7455 0.997481
18.7482 1.00691
18.7509 1.01586
18.7536 1.02386
18.7563 1.03071
18.759 1.03561
18.7617 1.03787
18.7644 1.03608
18.7671 1.03119
18.7698 1.0243
18.7725 1.01614
18.7752 1.00818
18.7779 1.00035
18.7806 0.993239
18.7833 0.987063
18.786 0.982008
18.7887 0.97939
18.7914 0.978276
18.7941 0.978051
18.7968 0.978935
18.7995 0.981852
18.8022 0.987788
18.8049 0.996115
18.8076 1.00647
18.8103 1.01745
18.813 1.02769
18.8157 1.03659
18.8184 1.04356
18.8211 1.04738
18.8238 1.04805
18.8265 1.04554
18.8292 1.0395
18.8319 1.03089
18.8346 1.01972
18.8373 1.00809
18.8399 0.997165
18.8426 0.988552
18.8453 0.981646
18.848 0.97657
18.8507 0.972693
18.8534 0.970133
18.8561 0.968471
18.8588 0.967776
18.8615 0.966418
18.8642 0.964894
18.8669 0.963587
18.8696 0.962303
18.8723 0.962343
18.875 0.962705
18.8777 0.963176
18.8804 0.963284
18.8831 0.96362
18.8858 0.963913
18.8885 0.96503
18.8912 0.964886
18.8939 0.964351
18.8966 0.962367
18.8993 0.961602
18.902 0.961327
18.9047 0.962347
18.9074 0.96321
18.9101 0.964272
18.9128 0.966029
18.9155 0.968897
18.9182 0.971752
18.9209 0.974569
18.9236 0.978906
18.9263 0.985103
18.929 0.99253
18.9317 1.00019
18.9343 1.00777
18.937 1.01432
18.9397 1.01926
18.9424 1.02151
18.9451 1.02115
18.9478 1.01866
18.9505 1.01387
18.9532 1.00793
18.9559 1.0021
18.9586 0.995314
18.9613 0.989022
18.964 0.98408
18.9667 0.980825
18.9694 0.978424
18.9721 0.976992
18.9748 0.976992
18.9775 0.978519
18.9802 0.982159
18.9829 0.987829
18.9856 0.994867
18.9883 1.00335
18.991 1.01373
18.9937 1.02511
18.9964 1.03605
18.9991 1.0444
19.0018 1.04985
19.0045 1.05197
19.0072 1.04994
19.0099 1.04379
19.0126 1.03456
19.0153 1.02451
19.018 1.01281
19.0207 1.00264
19.0234 0.992815
19.0261 0.984714
19.0288 0.978613
19.0314 0.974645
19.0341 0.971799
19.0368 0.969632
19.0395 0.9674
19.0422 0.965457
19.0449 0.964005
19.0476 0.963642
19.0503 0.964102
19.053 0.964264
19.0557 0.964445
19.0584 0.964729
19.0611 0.965577
19.0638 0.966159
19.0665 0.966252
19.0692 0.966269
19.0719 0.966857
19.0746 0.966791
19.0773 0.966288
19.08 0.966258
19.0827 0.966442
19.0854 0.967058
19.0881 0.966704
19.0908 0.966752
19.0935 0.967045
19.0962 0.967902
19.0989 0.968531
19.1016 0.968497
19.1043 0.968832
19.107 0.969974
19.1097 0.97205
19.1124 0.97531
19.1151 0.978735
19.1178 0.981183
19.1205 0.982637
19.1232 0.983327
19.1259 0.983435
19.1285 0.982493
19.1312 0.981357
19.1339 0.979962
19.1366 0.979158
19.1393 0.978032
19.142 0.976584
19.1447 0.976007
19.1474 0.974922
19.1501 0.975134
19.1528 0.976496
19.1555 0.979795
19.1582 0.985243
19.1609 0.9924
19.1636 1.00234
19.1663 1.01598
19.169 1.03248
19.1717 1.05094
19.1744 1.07076
19.1771 1.09007
19.1798 1.10574
19.1825 1.11583
19.1852 1.11868
19.1879 1.11444
19.1906 1.10442
19.1933 1.08927
19.196 1.07091
19.1987 1.0504
19.2014 1.03223
19.2041 1.01613
19.2068 1.00429
19.2095 0.996455
19.2122 0.991069
19.2149 0.987489
19.2176 0.985145
19.2203 0.985979
19.2229 0.990188
19.2256 0.9958
19.2283 1.00221
19.231 1.01041
19.2337 1.01957
19.2364 1.02829
19.2391 1.03593
19.2418 1.04082
19.2445 1.04236
19.2472 1.04026
19.2499 1.03526
19.2526 1.02738
19.2553 1.01881
19.258 1.00986
19.2607 1.00134
19.2634 0.992933
19.2661 0.985863
19.2688 0.980894
19.2715 0.977595
19.2742 0.976248
19.2769 0.975894
19.2796 0.97593
19.2823 0.975996
19.285 0.976418
19.2877 0.977829
19.2904 0.979951
19.2931 0.98176
19.2958 0.98365
19.2985 0.984756
19.3012 0.985854
19.3039 0.98712
19.3066 0.987068
19.3093 0.98599
19.312 0.984386
19.3147 0.981682
19.3174 0.978974
19.32 0.976754
19.3227 0.975422
19.3254 0.974724
19.3281 0.975219
19.3308 0.975387
19.3335 0.975315
19.3362 0.975744
19.3389 0.977218
19.3416 0.980352
19.3443 0.98566
19.347 0.992796
19.3497 1.00125
19.3524 1.00971
19.3551 1.01699
19.3578 1.02176
19.3605 1.02427
19.3632 1.02498
19.3659 1.02381
19.3686 1.01865
19.3713 1.0125
19.374 1.00433
19.3767 0.997164
19.3794 0.99094
19.3821 0.98628
19.3848 0.982813
19.3875 0.97983
19.3902 0.977589
19.3929 0.977141
19.3956 0.977447
19.3983 0.979668
19.401 0.983669
19.4037 0.988608
19.4064 0.994134
19.4091 1.00039
19.4118 1.00731
19.4145 1.01355
19.4171 1.01845
19.4198 1.02145
19.4225 1.02178
19.4252 1.02089
19.4279 1.017
19.4306 1.01148
19.4333 1.00449
19.436 0.998202
19.4387 0.991687
19.4414 0.986813
19.4441 0.983163
19.4468 0.980295
19.4495 0.978574
19.4522 0.978881
19.4549 0.981033
19.4576 0.984671
19.4603 0.990175
19.463 0.998314
19.4657 1.00784
19.4684 1.01844
19.4711 1.02972
19.4738 1.0395
19.4765 1.04646
19.4792 1.05062
19.4819 1.05015
19.4846 1.0468
19.4873 1.04023
19.49 1.03151
19.4927 1.02038
19.4954 1.00946
19.4981 1.00037
19.5008 0.993059
19.5035 0.987525
19.5062 0.983093
19.5089 0.979641
19.5116 0.977431
19.5142 0.976052
19.5169 0.975184
19.5196 0.974938
19.5223 0.974338
19.525 0.973731
19.5277 0.973651
19.5304 0.97363
19.5331 0.973533
19.5358 0.973032
19.5385 0.973078
19.5412 0.974033
19.5439 0.97391
19.5466 0.973563
19.5493 0.973491
19.552 0.972731
19.5547 0.971985
19.5574 0.971608
19.5601 0.971959
19.5628 0.972395
19.5655 0.973103
19.5682 0.97369
19.5709 0.974665
19.5736 0.975369
19.5763 0.976825
19.579 0.980032
19.5817 0.983918
19.5844 0.98769
19.5871 0.992225
19.5898 0.996802
19.5925 0.999866
19.5952 1.00252
19.5979 1.00331
19.6006 1.00147
19.6033 0.999129
19.606 0.99588
19.6086 0.991431
19.6113 0.987196
19.614 0.984208
19.6167 0.982865
19.6194 0.982169
19.6221 0.980846
19.6248 0.980075
19.6275 0.980593
19.6302 0.981595
19.6329 0.983748
19.6356 0.987826
19.6383 0.992771
19.641 0.998655
19.6437 1.00521
19.6464 1.01191
19.6491 1.01792
19.6518 1.02214
19.6545 1.02519
19.6572 1.02628
19.6599 1.02471
19.6626 1.02067
19.6653 1.01498
19.668 1.00784
19.6707 1.00008
19.6734 0.993145
19.6761 0.987857
19.6788 0.98535
19.6815 0.984848
19.6842 0.98495
19.6869 0.985595
19.6896 0.987705
19.6923 0.991048
19.695 0.996417
19.6977 1.00461
19.7004 1.01435
19.7031 1.02388
19.7057 1.03333
19.7084 1.04199
19.7111 1.04858
19.7138 1.05196
19.7165 1.05131
19.7192 1.04697
19.7219 1.03941
19.7246 1.02977
19.7273 1.01999
19.73 1.01154
19.7327 1.00366
19.7354 0.997189
19.7381 0.991512
19.7408 0.987809
19.7435 0.986638
19.7462 0.987446
19.7489 0.989906
19.7516 0.994399
19.7543 1.00174
19.757 1.01012
19.7597 1.01947
19.7624 1.02898
19.7651 1.03827
19.7678 1.04578
19.7705 1.05004
19.7732 1.05129
19.7759 1.04943
19.7786 1.0447
19.7813 1.03621
19.784 1.02579
19.7867 1.01481
19.7894 1.00494
19.7921 0.998452
19.7948 0.993043
19.7975 0.990456
19.8002 0.988204
19.8028 0.986788
19.8055 0.986328
19.8082 0.98679
19.8109 0.987408
19.8136 0.988988
19.8163 0.990602
19.819 0.992876
19.8217 0.995673
19.8244 0.997767
19.8271 0.998555
19.8298 0.998296
19.8325 0.997442
19.8352 0.996119
19.8379 0.995065
19.8406 0.993961
19.8433 0.992331
19.846 0.989764
19.8487 0.986771
19.8514 0.985363
19.8541 0.985302
19.8568 0.985854
19.8595 0.987033
19.8622 0.989479
19.8649 0.994223
19.8676 1.002
19.8703 1.01282
19.873 1.02597
19.8757 1.03997
19.8784 1.05315
19.8811 1.06515
19.8838 1.07478
19.8865 1.0796
19.8892 1.08027
19.8919 1.0763
19.8946 1.06797
19.8973 1.05611
19.8999 1.04283
19.9026 1.02992
19.9053 1.01814
19.908 1.00884
19.9107 1.00213
19.9134 0.997027
19.9161 0.994695
19.9188 0.994752
19.9215 0.996562
19.9242 1.00035
19.9269 1.00717
19.9296 1.0156
19.9323 1.02506
19.935 1.03589
19.9377 1.04592
19.9404 1.05381
19.9431 1.05945
19.9458 1.06153
19.9485 1.05949
19.9512 1.05419
19.9539 1.04524
19.9566 1.03422
19.9593 1.02314
19.962 1.01291
19.9647 1.00473
19.9674 0.998297
19.9701 0.994018
19.9728 0.991274
19.9755 0.98936
19.9782 0.98781
19.9809 0.986003
19.9836 0.9853
19.9863 0.984577
19.989 0.984417
19.9917 0.984211
19.9943 0.984594
19.997 0.983816
19.9997 0.983271
20.0024 0.981558
20.0051 0.979812
20.0078 0.979365
20.0105 0.979598
20.0132 0.979506
20.0159 0.97863
20.0186 0.977635
20.0213 0.9779
20.024 0.979615
20.0267 0.980861
20.0294 0.980974
20.0321 0.980324
20.0348 0.980143
20.0375 0.979862
20.0402 0.980649
20.0429 0.982322
20.0456 0.983479
20.0483 0.985614
20.051 0.988796
20.0537 0.990952
20.0564 0.99193
20.0591 0.99156
20.0618 0.990618
20.0645 0.990046
20.0672 0.989922
20.0699 0.989771
20.0726 0.988673
20.0753 0.98646
20.078 0.984409
20.0807 0.982913
20.0834 0.982732
20.0861 0.98374
20.0888 0.985303
20.0914 0.986177
20.0941 0.986399
20.0968 0.987074
20.0995 0.989386
20.1022 0.992928
20.1049 0.997083
20.1076 1.0014
20.1103 1.00454
20.113 1.00594
20.1157 1.00633
20.1184 1.00618
20.1211 1.00499
20.1238 1.00227
20.1265 0.999165
20.1292 0.99585
20.1319 0.992431
20.1346 0.990316
20.1373 0.989345
20.14 0.989438
20.1427 0.988787
20.1454 0.988277
20.1481 0.988736
20.1508 0.990572
20.1535 0.993024
20.1562 0.996394
20.1589 1.00192
20.1616 1.00918
20.1643 1.0167
20.167 1.02253
20.1697 1.02673
20.1724 1.02936
20.1751 1.03003
20.1778 1.02737
20.1805 1.0229
20.1832 1.01702
20.1859 1.01091
20.1885 1.00441
20.1912 0.998167
20.1939 0.994047
20.1966 0.991147
20.1993 0.989966
20.202 0.989018
20.2047 0.988577
20.2074 0.989134
20.2101 0.991032
20.2128 0.995508
20.2155 1.00159
20.2182 1.00753
20.2209 1.01337
20.2236 1.01958
20.2263 1.02401
20.229 1.02679
20.2317 1.02647
20.2344 1.02399
20.2371 1.0196
20.2398 1.01407
20.2425 1.00874
20.2452 1.00361
20.2479 0.99853
20.2506 0.995062
20.2533 0.992214
20.256 0.989076
20.2587 0.986856
20.2614 0.986139
20.2641 0.987266
20.2668 0.989225
20.2695 0.992853
20.2722 0.996891
20.2749 1.00157
20.2776 1.00747
20.2803 1.01245
20.2829 1.01673
20.2856 1.01832
20.2883 1.0182
20.291 1.01515
20.2937 1.01079
20.2964 1.0066
20.2991 1.00274
20.3018 0.998655
20.3045 0.994241
20.3072 0.990394
20.3099 0.988371
20.3126 0.987276
20.3153 0.986581
20.318 0.987655
20.3207 0.990211
20.3234 0.993554
20.3261 0.998673
20.3288 1.00604
20.3315 1.01479
20.3342 1.02311
20.3369 1.03072
20.3396 1.03646
20.3423 1.04024
20.345 1.04038
20.3477 1.03684
20.3504 1.03127
20.3531 1.02451
20.3558 1.01653
20.3585 1.00858
20.3612 1.00086
20.3639 0.994695
20.3666 0.990569
20.3693 0.989236
20.372 0.989614
20.3747 0.990562
20.3774 0.993327
20.38 0.997564
20.3827 1.00311
20.3854 1.01147
20.3881 1.02207
20.3908 1.03254
20.3935 1.04041
20.3962 1.04609
20.3989 1.04984
20.4016 1.04961
20.4043 1.04586
20.407 1.03782
20.4097 1.02754
20.4124 1.0178
20.4151 1.00992
20.4178 1.00354
20.4205 0.998448
20.4232 0.994537
20.4259 0.991605
20.4286 0.989578
20.4313 0.987811
20.434 0.9862
20.4367 0.985165
20.4394 0.984942
20.4421 0.985397
20.4448 0.985848
20.4475 0.985875
20.4502 0.986027
20.4529 0.985541
20.4556 0.985263
20.4583 0.985352
20.461 0.985326
20.4637 0.985028
20.4664 0.984469
20.4691 0.983968
20.4718 0.983134
20.4745 0.983102
20.4771 0.984526
20.4798 0.986242
20.4825 0.986597
20.4852 0.985664
20.4879 0.985054
20.4906 0.985055
20.4933 0.986199
20.496 0.988492
20.4987 0.991453
20.5014 0.994429
20.5041 0.995838
20.5068 0.997335
20.5095 0.999494
20.5122 1.00068
20.5149 1.00112
20.5176 1.00073
20.5203 0.999273
20.523 0.997236
20.5257 0.994705
20.5284 0.991877
20.5311 0.990302
20.5338 0.98913
20.5365 0.989063
20.5392 0.990041
20.5419 0.990403
20.5446 0.992983
20.5473 0.997763
20.55 1.00459
20.5527 1.01305
20.5554 1.02372
20.5581 1.03572
20.5608 1.04717
20.5635 1.05603
20.5662 1.0614
20.5689 1.06187
20.5716 1.05753
20.5742 1.05039
20.5769 1.0413
20.5796 1.02989
20.5823 1.01895
20.585 1.00929
20.5877 1.00258
20.5904 0.997589
20.5931 0.994496
20.5958 0.993905
20.5985 0.994999
20.6012 0.997125
20.6039 1.00037
20.6066 1.00562
20.6093 1.01334
20.612 1.02225
20.6147 1.03026
20.6174 1.03664
20.6201 1.04256
20.6228 1.04664
20.6255 1.0463
20.6282 1.04207
20.6309 1.03392
20.6336 1.02514
20.6363 1.01649
20.639 1.00864
20.6417 1.00329
20.6444 0.998469
20.6471 0.994214
20.6498 0.991481
20.6525 0.989853
20.6552 0.988443
20.6579 0.988218
20.6606 0.989839
20.6633 0.992272
20.666 0.995258
20.6686 0.997628
20.6713 0.999663
20.674 1.00177
20.6767 1.0032
20.6794 1.00366
20.6821 1.00328
20.6848 1.00245
20.6875 1.00015
20.6902 0.99732
20.6929 0.995066
20.6956 0.993232
20.6983 0.990671
20.701 0.98874
20.7037 0.988039
20.7064 0.987109
20.7091 0.985609
20.7118 0.984968
20.7145 0.985083
20.7172 0.986483
20.7199 0.98604
20.7226 0.984278
20.7253 0.983327
20.728 0.982821
20.7307 0.98205
20.7334 0.981797
20.7361 0.982149
20.7388 0.982694
20.7415 0.983106
20.7442 0.982802
20.7469 0.983081
20.7496 0.982752
20.7523 0.983174
20.755 0.984347
20.7577 0.985863
20.7604 0.987535
20.7631 0.989532
20.7657 0.991818
20.7684 0.995909
20.7711 1.00231
20.7738 1.01181
20.7765 1.02383
20.7792 1.03694
20.7819 1.04955
20.7846 1.05883
20.7873 1.0648
20.79 1.06581
20.7927 1.06209
20.7954 1.05417
20.7981 1.04206
20.8008 1.02965
20.8035 1.0192
20.8062 1.01055
20.8089 1.00259
20.8116 0.996017
20.8143 0.991874
20.817 0.989901
20.8197 0.989296
20.8224 0.989065
20.8251 0.989787
20.8278 0.992239
20.8305 0.995094
20.8332 0.998443
20.8359 1.00116
20.8386 1.00511
20.8413 1.0079
20.844 1.00915
20.8467 1.00884
20.8494 1.00636
20.8521 1.00341
20.8548 0.999512
20.8575 0.9957
20.8602 0.993454
20.8628 0.991774
20.8655 0.989728
20.8682 0.988225
20.8709 0.987714
20.8736 0.986974
20.8763 0.986054
20.879 0.985598
20.8817 0.985949
20.8844 0.98566
20.8871 0.984825
20.8898 0.984167
20.8925 0.983236
20.8952 0.982935
20.8979 0.983388
20.9006 0.983832
20.9033 0.983194
20.906 0.982108
20.9087 0.981454
20.9114 0.981238
20.9141 0.981423
20.9168 0.982486
20.9195 0.983812
20.9222 0.984738
20.9249 0.984761
20.9276 0.983924
20.9303 0.983261
20.933 0.984163
20.9357 0.984633
20.9384 0.984205
20.9411 0.98369
20.9438 0.983219
20.9465 0.983495
20.9492 0.983538
20.9519 0.982806
20.9546 0.982364
20.9573 0.982148
20.9599 0.983335
20.9626 0.984821
20.9653 0.985578
20.968 0.985351
20.9707 0.985115
20.9734 0.984889
20.9761 0.984948
20.9788 0.985059
20.9815 0.985909
20.9842 0.987092
20.9869 0.9876
20.9896 0.988665
20.9923 0.989871
20.995 0.991457
20.9977 0.993663
21.0004 0.996152
21.0031 0.998921
21.0058 1.00092
21.0085 1.00179
21.0112 1.00158
21.0139 1.00075
21.0166 0.999105
21.0193 0.99737
21.022 0.995537
21.0247 0.993463
21.0274 0.992132
21.0301 0.992146
21.0328 0.993127
21.0355 0.993613
21.0382 0.994547
21.0409 0.997962
21.0436 1.00364
21.0463 1.01222
21.049 1.02348
21.0517 1.03617
21.0543 1.04849
21.057 1.05943
21.0597 1.06851
21.0624 1.07438
21.0651 1.07356
21.0678 1.06675
21.0705 1.05614
21.0732 1.04291
21.0759 1.03031
21.0786 1.01885
21.0813 1.00986
21.084 1.00248
21.0867 0.998191
21.0894 0.995983
21.0921 0.995632
21.0948 0.996625
21.0975 0.998241
21.1002 1.00102
21.1029 1.00454
21.1056 1.00915
21.1083 1.01459
21.111 1.01961
21.1137 1.02271
21.1164 1.02367
21.1191 1.02381
21.1218 1.02237
21.1245 1.01816
21.1272 1.01253
21.1299 1.00652
21.1326 1.00118
21.1353 0.997565
21.138 0.994953
21.1407 0.992697
21.1434 0.99092
21.1461 0.988799
21.1488 0.987505
21.1514 0.988421
21.1541 0.991055
21.1568 0.993467
21.1595 0.996014
21.1622 0.998619
21.1649 1.00161
21.1676 1.00494
21.1703 1.00713
21.173 1.00718
21.1757 1.00476
21.1784 1.00143
21.1811 0.998672
21.1838 0.996395
21.1865 0.995469
21.1892 0.993803
21.1919 0.991464
21.1946 0.989481
21.1973 0.989448
21.2 0.990184
21.2027 0.991341
21.2054 0.993391
21.2081 0.99607
21.2108 0.999991
21.2135 1.00628
21.2162 1.01286
21.2189 1.01854
21.2216 1.02404
21.2243 1.02749
21.227 1.02842
21.2297 1.02605
21.2324 1.0214
21.2351 1.01536
21.2378 1.01019
21.2405 1.00324
21.2432 0.996661
21.2459 0.993318
21.2485 0.992264
21.2512 0.991757
21.2539 0.991663
21.2566 0.992554
21.2593 0.99466
21.262 0.99715
21.2647 1.00081
21.2674 1.00749
21.2701 1.01402
21.2728 1.0198
21.2755 1.02413
21.2782 1.02709
21.2809 1.02818
21.2836 1.02672
21.2863 1.02226
21.289 1.01609
21.2917 1.01018
21.2944 1.00439
21.2971 0.999904
21.2998 0.995962
21.3025 0.993342
21.3052 0.991696
21.3079 0.990123
21.3106 0.989749
21.3133 0.988986
21.316 0.988622
21.3187 0.987237
21.3214 0.98701
21.3241 0.988393
21.3268 0.98873
21.3295 0.988181
21.3322 0.987178
21.3349 0.986682
21.3376 0.986339
21.3403 0.986409
21.3429 0.986286
21.3456 0.985822
21.3483 0.984408
21.351 0.984066
21.3537 0.985869
21.3564 0.988011
21.3591 0.988743
21.3618 0.988628
21.3645 0.989095
21.3672 0.990685
21.3699 0.993587
21.3726 0.998536
21.3753 1.00336
21.378 1.00809
21.3807 1.01252
21.3834 1.01595
21.3861 1.01766
21.3888 1.01664
21.3915 1.01422
21.3942 1.01024
21.3969 1.00551
21.3996 1.00143
21.4023 0.999094
21.405 0.99744
21.4077 0.99435
21.4104 0.991898
21.4131 0.990637
21.4158 0.991595
21.4185 0.994062
21.4212 0.996971
21.4239 1.00123
21.4266 1.00745
21.4293 1.01434
21.432 1.02216
21.4347 1.02903
21.4374 1.03165
21.44 1.03019
21.4427 1.02783
21.4454 1.02454
21.4481 1.02055
21.4508 1.01458
21.4535 1.00688
21.4562 1.00009
21.4589 0.994404
21.4616 0.990879
21.4643 0.989565
21.467 0.98949
21.4697 0.989176
21.4724 0.989269
21.4751 0.991334
21.4778 0.994627
21.4805 0.997751
21.4832 0.999645
21.4859 1.00128
21.4886 1.00427
21.4913 1.00889
21.494 1.01091
21.4967 1.00964
21.4994 1.00655
21.5021 1.00449
21.5048 1.00184
21.5075 0.998914
21.5102 0.995942
21.5129 0.992111
21.5156 0.988967
21.5183 0.989182
21.521 0.989465
21.5237 0.989125
21.5264 0.9899
21.5291 0.992858
21.5318 0.997304
21.5345 1.00084
21.5371 1.00376
21.5398 1.00705
21.5425 1.01005
21.5452 1.012
21.5479 1.01174
21.5506 1.01017
21.5533 1.0065
21.556 1.001
21.5587 0.995369
21.5614 0.992269
21.5641 0.990054
21.5668 0.988772
21.5695 0.987917
21.5722 0.987004
21.5749 0.986755
21.5776 0.986348
21.5803 0.986887
21.583 0.987942
21.5857 0.989371
21.5884 0.989681
21.5911 0.990956
21.5938 0.992721
21.5965 0.995539
21.5992 0.996599
21.6019 0.996288
21.6046 0.994862
21.6073 0.992198
21.61 0.990233
21.6127 0.987838
21.6154 0.985978
21.6181 0.984728
21.6208 0.982976
21.6235 0.982562
21.6262 0.983722
21.6289 0.986382
21.6316 0.987025
21.6342 0.987391
21.6369 0.989646
21.6396 0.992159
21.6423 0.995323
21.645 0.999691
21.6477 1.00399
21.6504 1.00654
21.6531 1.00755
21.6558 1.0075
21.6585 1.00588
21.6612 1.00193
21.6639 0.997211
21.6666 0.993878
21.6693 0.99164
21.672 0.988568
21.6747 0.984729
21.6774 0.983589
21.6801 0.983817
21.6828 0.984713
21.6855 0.988731
21.6882 0.994896
21.6909 1.00334
21.6936 1.01239
21.6963 1.02294
21.699 1.03535
21.7017 1.04642
21.7044 1.05204
21.7071 1.05214
21.7098 1.04858
21.7125 1.04171
21.7152 1.03192
21.7179 1.02008
21.7206 1.00893
21.7233 1.00053
21.726 0.995078
21.7286 0.991156
21.7313 0.988212
21.734 0.984828
21.7367 0.982278
21.7394 0.982163
21.7421 0.983346
21.7448 0.983626
21.7475 0.982881
21.7502 0.983071
21.7529 0.983717
21.7556 0.984758
21.7583 0.985956
21.761 0.986528
21.7637 0.986501
21.7664 0.985055
21.7691 0.984522
21.7718 0.985547
21.7745 0.984712
21.7772 0.982741
21.7799 0.982309
21.7826 0.983331
21.7853 0.98434
21.788 0.983861
21.7907 0.983277
21.7934 0.983087
21.7961 0.983512
21.7988 0.984834
21.8015 0.987147
21.8042 0.98865
21.8069 0.988821
21.8096 0.988384
21.8123 0.989043
21.815 0.990016
21.8177 0.990553
21.8204 0.990378
21.8231 0.989353
21.8257 0.988046
21.8284 0.987969
21.8311 0.987965
21.8338 0.988195
21.8365 0.987588
21.8392 0.98866
21.8419 0.990708
21.8446 0.995115
21.8473 0.999601
21.85 1.00562
21.8527 1.01495
21.8554 1.02598
21.8581 1.03659
21.8608 1.04592
21.8635 1.05141
21.8662 1.0504
21.8689 1.04525
21.8716 1.03762
21.8743 1.02864
21.877 1.01885
21.8797 1.00917
21.8824 1.00311
21.8851 0.998133
21.8878 0.994339
21.8905 0.992955
21.8932 0.992983
21.8959 0.992274
21.8986 0.992008
21.9013 0.994636
21.904 0.999046
21.9067 1.00346
21.9094 1.00655
21.9121 1.00894
21.9148 1.01117
21.9175 1.01081
21.9202 1.00827
21.9228 1.00458
21.9255 1.00042
21.9282 0.997501
21.9309 0.996323
21.9336 0.993613
21.9363 0.991789
21.939 0.990913
21.9417 0.989264
21.9444 0.989527
21.9471 0.989755
21.9498 0.990229
21.9525 0.991792
21.9552 0.994667
21.9579 0.997971
21.9606 1.00057
21.9633 1.00218
21.966 1.00397
21.9687 1.00483
21.9714 1.0047
21.9741 1.00284
21.9768 1.00002
21.9795 0.997742
21.9822 0.99657
21.9849 0.995842
21.9876 0.994027
21.9903 0.991134
21.993 0.988417
21.9957 0.987656
21.9984 0.988912
22.0011 0.990347
22.0038 0.991656
22.0065 0.994386
22.0092 0.995983
22.0119 0.998463
22.0146 1.00117
22.0172 1.00213
22.0199 1.00227
22.0226 1.0023
22.0253 1.00126
22.028 0.999088
22.0307 0.996483
22.0334 0.99461
22.0361 0.992068
22.0388 0.99006
22.0415 0.990458
22.0442 0.990898
22.0469 0.989369
22.0496 0.989044
22.0523 0.990477
22.055 0.992636
22.0577 0.993661
22.0604 0.994239
22.0631 0.996486
22.0658 1.00087
22.0685 1.00409
22.0712 1.00727
22.0739 1.00768
22.0766 1.00592
22.0793 1.00302
22.082 1.00113
22.0847 0.999697
22.0874 0.996201
22.0901 0.993005
22.0928 0.991165
22.0955 0.988673
22.0982 0.987387
22.1009 0.988193
22.1036 0.988111
22.1063 0.988312
22.109 0.99077
22.1117 0.994261
22.1143 0.997732
22.117 1.00114
22.1197 1.00512
22.1224 1.0085
22.1251 1.00847
22.1278 1.00728
22.1305 1.00486
22.1332 1.00293
22.1359 0.999231
22.1386 0.994858
22.1413 0.991046
22.144 0.988107
22.1467 0.986615
22.1494 0.987257
22.1521 0.988312
22.1548 0.988557
22.1575 0.987798
22.1602 0.989056
22.1629 0.989888
22.1656 0.990188
22.1683 0.988121
22.171 0.985803
22.1737 0.985458
22.1764 0.984993
22.1791 0.985075
22.1818 0.984814
22.1845 0.985063
22.1872 0.986064
22.1899 0.985445
22.1926 0.983486
22.1953 0.982718
22.198 0.983418
22.2007 0.984482
22.2034 0.985112
22.2061 0.986623
22.2088 0.988274
22.2114 0.990303
22.2141 0.993748
22.2168 0.997735
22.2195 1.00096
22.2222 1.00317
22.2249 1.00548
22.2276 1.00783
22.2303 1.0079
22.233 1.00568
22.2357 1.00284
22.2384 0.999005
22.2411 0.995365
22.2438 0.991983
22.2465 0.989094
22.2492 0.986876
22.2519 0.98561
22.2546 0.985349
22.2573 0.986681
22.26 0.987755
22.2627 0.989167
22.2654 0.992422
22.2681 0.996101
22.2708 1.00009
22.2735 1.00309
22.2762 1.00501
22.2789 1.00548
22.2816 1.00459
22.2843 1.0027
22.287 1.00054
22.2897 0.998082
22.2924 0.99508
22.2951 0.993832
22.2978 0.992122
22.3005 0.989738
22.3032 0.987796
22.3059 0.98793
22.3085 0.989708
22.3112 0.9921
22.3139 0.993527
22.3166 0.995169
22.3193 0.998275
22.322 1.00201
22.3247 1.00619
22.3274 1.01019
22.3301 1.01099
22.3328 1.0107
22.3355 1.00933
22.3382 1.00712
22.3409 1.0036
22.3436 0.998935
22.3463 0.995598
22.349 0.994821
22.3517 0.993578
22.3544 0.990193
22.3571 0.987988
22.3598 0.987388
22.3625 0.987289
22.3652 0.988845
22.3679 0.991429
22.3706 0.993926
22.3733 0.996248
22.376 0.999115
22.3787 1.00177
22.3814 1.00268
22.3841 1.00224
22.3868 1.00004
22.3895 0.997358
22.3922 0.994726
22.3949 0.992669
22.3976 0.992727
22.4003 0.991972
22.4029 0.989182
22.4056 0.987736
22.4083 0.98699
22.411 0.986768
22.4137 0.987102
22.4164 0.985807
22.4191 0.984411
22.4218 0.984881
22.4245 0.986238
22.4272 0.986318
22.4299 0.985769
22.4326 0.986016
22.4353 0.987095
22.438 0.988484
22.4407 0.988813
22.4434 0.987585
22.4461 0.985373
22.4488 0.985009
22.4515 0.985216
22.4542 0.984376
22.4569 0.984027
22.4596 0.9855
22.4623 0.988353
22.465 0.991273
22.4677 0.994664
22.4704 0.99749
22.4731 1.00203
22.4758 1.00825
22.4785 1.01298
22.4812 1.01579
22.4839 1.01827
22.4866 1.01959
22.4893 1.01737
22.492 1.01417
22.4947 1.00945
22.4974 1.00366
22.5 1.00055
22.5027 0.998199
22.5054 0.994994
22.5081 0.990929
22.5108 0.990201
22.5135 0.992724
22.5162 0.994483
22.5189 0.995065
22.5216 0.996532
22.5243 1.00051
22.527 1.00756
22.5297 1.01274
22.5324 1.01505
22.5351 1.01454
22.5378 1.01526
22.5405 1.01569
22.5432 1.01137
22.5459 1.00536
22.5486 1.00048
22.5513 0.997887
22.554 0.994056
22.5567 0.99126
22.5594 0.99054
22.5621 0.989074
22.5648 0.987641
22.5675 0.987649
22.5702 0.986217
22.5729 0.986676
22.5756 0.988915
22.5783 0.99002
22.581 0.989951
22.5837 0.989823
22.5864 0.990474
22.5891 0.991479
22.5918 0.992821
22.5945 0.992582
22.5971 0.992178
22.5998 0.990448
22.6025 0.989441
22.6052 0.990507
22.6079 0.991121
22.6106 0.990859
22.6133 0.989841
22.616 0.989896
22.6187 0.990286
22.6214 0.990946
22.6241 0.990625
22.6268 0.99354
22.6295 0.996242
22.6322 0.997292
22.6349 0.99738
22.6376 0.998298
22.6403 1.00055
22.643 1.00021
22.6457 0.997865
22.6484 0.99492
22.6511 0.993142
22.6538 0.993096
22.6565 0.993694
22.6592 0.994146
22.6619 0.993947
22.6646 0.994262
22.6673 0.994659
22.67 0.995186
22.6727 0.998069
22.6754 1.00303
22.6781 1.00922
22.6808 1.01396
22.6835 1.0159
22.6862 1.01828
22.6889 1.01947
22.6916 1.01835
22.6942 1.01657
22.6969 1.01267
22.6996 1.00799
22.7023 1.0048
22.705 1.0024
22.7077 1.00037
22.7104 0.99753
22.7131 0.995233
22.7158 0.993782
22.7185 0.994234
22.7212 0.995044
22.7239 0.996335
22.7266 0.999111
22.7293 1.00149
22.732 1.00288
22.7347 1.00314
22.7374 1.00343
22.7401 1.00305
22.7428 1.00333
22.7455 1.00262
22.7482 1.00203
22.7509 1.00126
22.7536 0.998819
22.7563 0.995502
22.759 0.993485
22.7617 0.994125
22.7644 0.993566
22.7671 0.993675
22.7698 0.995054
22.7725 0.998882
22.7752 1.0038
22.7779 1.00901
22.7806 1.0115
22.7833 1.01356
22.786 1.01624
22.7886 1.0177
22.7913 1.01693
22.794 1.01456
22.7967 1.01333
22.7994 1.01002
22.8021 1.00362
22.8048 1.00199
22.8075 0.999013
22.8102 0.996246
22.8129 0.995105
22.8156 0.994998
22.8183 0.994557
22.821 0.996736
22.8237 0.999987
22.8264 1.00067
22.8291 1.00157
22.8318 1.00303
22.8345 1.00514
22.8372 1.00614
22.8399 1.00525
22.8426 1.00448
22.8453 1.00296
22.848 0.999674
22.8507 0.997563
22.8534 0.996137
22.8561 0.995595
22.8588 0.996037
22.8615 0.996741
22.8642 0.997371
22.8669 0.997439
22.8696 0.99686
22.8723 0.997412
22.875 0.99901
22.8777 1.00271
22.8804 1.00789
22.8831 1.01274
22.8857 1.01528
22.8884 1.01771
22.8911 1.01742
22.8938 1.01559
22.8965 1.01237
22.8992 1.00844
22.9019 1.00332
22.9046 0.9999
22.9073 0.999191
22.91 0.99797
22.9127 0.996647
22.9154 0.997883
22.9181 0.999552
22.9208 1.00106
22.9235 1.00442
22.9262 1.00972
22.9289 1.01592
22.9316 1.02239
22.9343 1.0291
22.937 1.03359
22.9397 1.0357
22.9424 1.03468
22.9451 1.03175
22.9478 1.02583
22.9505 1.01952
22.9532 1.014
22.9559 1.00975
22.9586 1.00478
22.9613 0.998987
22.964 0.997665
22.9667 0.999804
22.9694 0.998909
22.9721 0.996202
22.9748 0.99369
22.9775 0.994615
22.9802 0.995939
22.9828 0.997128
22.9855 0.997916
22.9882 0.99787
22.9909 0.997454
22.9936 0.996552
22.9963 0.995768
22.999 0.995146
